Frame Number, Receipt Time, Data Delivered, Data Synchronized, Data Processed, Delivered To DataStream, Network Transmission
91855, 611514364.373100, 0.003230, 0.000173, 0.001323, 0.000109, 
91856, 611514365.915000, 0.003246, 0.000153, 0.001298, 0.000115, 
91857, 611514371.918700, 0.003282, 0.000158, 0.001318, 0.000105, 
91858, 611514381.083800, 0.003227, 0.000170, 0.001259, 0.000111, 
91859, 611514381.383700, 0.003354, 0.000150, 0.001264, 0.000094, 
91861, 611514391.492800, 0.003377, 0.000242, 0.001310, 0.000111, 
91862, 611514397.686800, 0.003294, 0.000156, 0.001345, 0.000110, 
91863, 611514405.079300, 0.003235, 0.000213, 0.001548, 0.000148, 
91864, 611514405.329500, 0.003226, 0.000156, 0.001357, 0.000116, 
91865, 611514412.688400, 0.003228, 0.000178, 0.001332, 0.000116, 
91866, 611514418.687000, 0.003229, 0.000158, 0.001271, 0.000113, 
91867, 611514419.970400, 0.003254, 0.000178, 0.001408, 0.000123, 
91868, 611514424.956900, 0.003223, 0.000198, 0.001393, 0.000124, 
91869, 611514429.892700, 0.003229, 0.000172, 0.001368, 0.000117, 
91870, 611514434.881400, 0.003237, 0.000185, 0.001333, 0.000114, 
91871, 611514439.895000, 0.003233, 0.000165, 0.001358, 0.000118, 
91875, 611514468.034400, 0.003230, 0.000187, 0.001435, 0.000115, 
91876, 611514468.547900, 0.003197, 0.000181, 0.001356, 0.000117, 
91877, 611514471.151700, 0.003221, 0.000213, 0.001515, 0.000121, 
91878, 611514477.913600, 0.003333, 0.000209, 0.001420, 0.000122, 
91879, 611514480.108100, 0.003217, 0.000194, 0.001534, 0.000129, 
91880, 611514485.010800, 0.003225, 0.000181, 0.001432, 0.000121, 
91881, 611514491.115400, 0.003235, 0.000217, 0.001325, 0.000125, 
91885, 611514511.389900, 0.003349, 0.000148, 0.001234, 0.000105, 0.000657
91888, 611514530.995400, 0.003269, 0.000161, 0.001270, 0.000112, 0.000628
91893, 611514551.640600, 0.003265, 0.000176, 0.001370, 0.000110, 0.000638
91897, 611514571.240700, 0.003259, 0.000205, 0.001421, 0.000119, 0.000642
91901, 611514593.272600, 0.003229, 0.000216, 0.001335, 0.000108, 0.000464
91905, 611514611.549000, 0.003229, 0.000169, 0.001390, 0.000112, 0.000396
91909, 611514631.172300, 0.003238, 0.000179, 0.001391, 0.000114, 0.000399
91913, 611514650.797100, 0.003178, 0.000192, 0.001402, 0.000109, 0.000401
91928, 611514726.757800, 0.003234, 0.000157, 0.001292, 0.000113, 0.000404
91929, 611514729.874000, 0.003207, 0.000161, 0.001329, 0.000118, 0.000404
91930, 611514737.093100, 0.003221, 0.000160, 0.001324, 0.000115, 0.000411
91933, 611514755.369500, 0.003356, 0.000284, 0.001502, 0.000120, 0.000413
91934, 611514758.112100, 0.003221, 0.000160, 0.001253, 0.000109, 0.000413
91937, 611514771.608700, 0.003411, 0.000187, 0.001195, 0.000098, 0.000491
91940, 611514792.134700, 0.003282, 0.000153, 0.001377, 0.000158, 0.000431
91945, 611514810.969900, 0.003388, 0.000295, 0.001435, 0.000121, 0.000437
91949, 611514831.744600, 0.003352, 0.000298, 0.001322, 0.000124, 0.000312
91953, 611514851.407100, 0.003251, 0.000194, 0.001341, 0.000112, 0.000382
91957, 611514871.123000, 0.003228, 0.000170, 0.001344, 0.000116, 0.000404
91961, 611514891.790800, 0.003375, 0.000295, 0.001292, 0.000114, 0.000409
91965, 611514913.622900, 0.003412, 0.000213, 0.001237, 0.000103, 0.000411
91969, 611514930.739000, 0.003411, 0.000195, 0.001196, 0.000106, 0.000367
91973, 611514951.184100, 0.003237, 0.000193, 0.001329, 0.000110, 0.000322
91977, 611514971.355800, 0.003391, 0.000174, 0.001329, 0.000116, 0.000320
91981, 611514991.152400, 0.003224, 0.000214, 0.001673, 0.000148, 0.000318
91985, 611515011.408800, 0.003314, 0.000155, 0.001287, 0.000101, 0.000320
91989, 611515030.812700, 0.003236, 0.000152, 0.001268, 0.000106, 0.000317
91993, 611515051.070700, 0.003298, 0.000292, 0.001148, 0.000111, 0.000316
91997, 611515071.534900, 0.003252, 0.000146, 0.001193, 0.000108, 0.000321
92001, 611515091.337500, 0.003569, 0.000151, 0.001400, 0.000109, 0.000312
92005, 611515111.108800, 0.003237, 0.000170, 0.001317, 0.000111, 0.000315
92009, 611515131.736500, 0.003425, 0.000170, 0.001265, 0.000101, 0.000314
92013, 611515150.813400, 0.003272, 0.000146, 0.001196, 0.000099, 0.000263
92017, 611515172.504600, 0.003421, 0.000165, 0.001240, 0.000097, 0.000248
92021, 611515191.653900, 0.003185, 0.000382, 0.001576, 0.000110, 0.000249
92025, 611515212.020400, 0.003363, 0.000183, 0.001362, 0.000112, 0.000211
92029, 611515231.524700, 0.003183, 0.000191, 0.001425, 0.000111, 0.000209
92033, 611515251.173500, 0.003428, 0.000274, 0.001225, 0.000105, 0.000137
92037, 611515271.946000, 0.003381, 0.000221, 0.001275, 0.000103, 0.000132
92041, 611515291.332500, 0.003362, 0.000187, 0.001853, 0.000126, 0.000139
92045, 611515311.643600, 0.003376, 0.000380, 0.001588, 0.000101, 0.000135
92049, 611515331.471600, 0.003230, 0.000144, 0.001200, 0.000109, 0.000135
92053, 611515351.227400, 0.003242, 0.000190, 0.001400, 0.000116, 0.000145
92057, 611515371.074400, 0.003260, 0.000156, 0.001237, 0.000102, 0.000148
92061, 611515392.253600, 0.003515, 0.000158, 0.001180, 0.000113, 0.000149
92065, 611515412.152600, 0.003377, 0.000148, 0.001316, 0.000102, 0.000192
92069, 611515431.236400, 0.003178, 0.000153, 0.001269, 0.000105, 0.000194
92073, 611515451.094500, 0.003291, 0.000146, 0.001254, 0.000099, 0.000194
92077, 611515472.346800, 0.003357, 0.000282, 0.001184, 0.000105, 0.000189
92081, 611515492.341200, 0.003592, 0.000161, 0.001319, 0.000111, 0.000188
92085, 611515510.976000, 0.003226, 0.000164, 0.001271, 0.000112, 0.000186
92089, 611515531.989400, 0.003417, 0.000185, 0.001241, 0.000102, 0.000212
92093, 611515552.268000, 0.003225, 0.000218, 0.001439, 0.000117, 0.000221
92097, 611515572.905400, 0.003226, 0.000166, 0.001216, 0.000107, 0.000242
92101, 611515591.773700, 0.003228, 0.000335, 0.001371, 0.000105, 0.000245
92105, 611515611.301400, 0.003277, 0.000151, 0.001255, 0.000104, 0.000243
92109, 611515630.853600, 0.003417, 0.000271, 0.001217, 0.000100, 0.000246
92113, 611515651.055900, 0.003358, 0.000294, 0.001181, 0.000103, 0.000264
92117, 611515671.429200, 0.003236, 0.000158, 0.001407, 0.000115, 0.000250
92121, 611515691.615200, 0.003615, 0.000155, 0.001423, 0.000106, 0.000247
92125, 611515711.320600, 0.003378, 0.000221, 0.001253, 0.000094, 0.000247
92129, 611515731.878000, 0.003262, 0.000162, 0.001247, 0.000109, 0.000248
92133, 611515751.837600, 0.003273, 0.000160, 0.001223, 0.000118, 0.000248
92137, 611515771.191300, 0.003261, 0.000177, 0.001343, 0.000118, 0.000247
92141, 611515792.054800, 0.003276, 0.000308, 0.001370, 0.000116, 0.000250
92145, 611515811.680000, 0.003253, 0.000151, 0.001286, 0.000102, 0.000204
92149, 611515831.214100, 0.003222, 0.000191, 0.001395, 0.000149, 0.000213
92153, 611515851.120500, 0.003395, 0.000178, 0.001230, 0.000099, 0.000213
92157, 611515872.008800, 0.003274, 0.000142, 0.001183, 0.000107, 0.000247
92161, 611515891.747100, 0.003406, 0.000290, 0.001517, 0.000117, 0.000248
92165, 611515911.678600, 0.003227, 0.000159, 0.001410, 0.000117, 0.000266
92169, 611515930.971200, 0.003366, 0.000271, 0.001314, 0.000104, 0.000242
92173, 611515951.213800, 0.003211, 0.000146, 0.001190, 0.000105, 0.000229
92177, 611515971.788100, 0.003411, 0.000144, 0.001263, 0.000102, 0.000232
92181, 611515991.902300, 0.003224, 0.000364, 0.001615, 0.000124, 0.000276
92185, 611516011.596800, 0.003413, 0.000314, 0.001289, 0.000106, 0.000277
92189, 611516031.254600, 0.003243, 0.000168, 0.001360, 0.000116, 0.000273
92193, 611516052.526400, 0.003261, 0.000156, 0.001346, 0.000114, 0.000256
92197, 611516070.987400, 0.003230, 0.000185, 0.001448, 0.000113, 0.000267
92201, 611516090.792200, 0.003234, 0.000213, 0.001302, 0.000104, 0.000260
92205, 611516112.006400, 0.003225, 0.000170, 0.001378, 0.000116, 0.000260
92209, 611516131.859900, 0.003217, 0.000163, 0.001270, 0.000107, 0.000260
92213, 611516151.236300, 0.003249, 0.000198, 0.001644, 0.000150, 0.000277
92217, 611516172.051300, 0.003236, 0.000192, 0.001328, 0.000127, 0.000293
92221, 611516191.696600, 0.003308, 0.000261, 0.001243, 0.000112, 0.000291
92225, 611516211.075500, 0.003411, 0.000260, 0.001175, 0.000100, 0.000304
92229, 611516232.808100, 0.003254, 0.000158, 0.001375, 0.000111, 0.000297
92233, 611516251.269800, 0.003255, 0.000188, 0.001380, 0.000125, 0.000296
92237, 611516272.029000, 0.003358, 0.000156, 0.001309, 0.000117, 0.000265
92241, 611516290.819900, 0.003414, 0.000184, 0.001229, 0.000107, 0.000264
92245, 611516311.528200, 0.003241, 0.000172, 0.001302, 0.000120, 0.000273
92249, 611516331.855900, 0.003208, 0.000153, 0.001289, 0.000114, 0.000279
92253, 611516350.936600, 0.003368, 0.000231, 0.001236, 0.000106, 0.000297
92257, 611516371.118800, 0.003281, 0.000164, 0.001233, 0.000107, 0.000272
92261, 611516391.065400, 0.003215, 0.000354, 0.001293, 0.000121, 0.000225
92265, 611516411.721700, 0.003330, 0.000145, 0.001317, 0.000102, 0.000224
92269, 611516431.705300, 0.003347, 0.000358, 0.001196, 0.000107, 0.000225
92273, 611516451.467100, 0.003338, 0.000152, 0.001342, 0.000106, 0.000224
92277, 611516471.616800, 0.003188, 0.000168, 0.001329, 0.000111, 0.000217
92281, 611516491.513400, 0.003328, 0.000365, 0.001330, 0.000112, 0.000214
92285, 611516511.033500, 0.003410, 0.000179, 0.001199, 0.000103, 0.000228
92289, 611516531.919300, 0.003389, 0.000287, 0.001224, 0.000100, 0.000228
92293, 611516551.260400, 0.003180, 0.000157, 0.001250, 0.000107, 0.000204
92297, 611516571.382600, 0.003392, 0.000204, 0.001213, 0.000100, 0.000183
92301, 611516591.052900, 0.003358, 0.000283, 0.001180, 0.000105, 0.000194
92305, 611516611.085800, 0.003421, 0.000303, 0.001272, 0.000101, 0.000181
92309, 611516631.266300, 0.003248, 0.000174, 0.001328, 0.000115, 0.000178
92313, 611516651.418500, 0.003224, 0.000178, 0.001389, 0.000112, 0.000224
92317, 611516672.072600, 0.003165, 0.000144, 0.001150, 0.000104, 0.000239
92321, 611516691.533400, 0.003575, 0.000163, 0.001509, 0.000123, 0.000271
92325, 611516711.836500, 0.003241, 0.000161, 0.001314, 0.000107, 0.000246
92329, 611516731.966900, 0.003411, 0.000209, 0.001287, 0.000096, 0.000250
92333, 611516751.671900, 0.003515, 0.000143, 0.001168, 0.000112, 0.000257
92337, 611516770.867600, 0.003350, 0.000265, 0.001245, 0.000099, 0.000257
92341, 611516791.576600, 0.003233, 0.000355, 0.001266, 0.000111, 0.000298
92345, 611516810.940300, 0.003369, 0.000244, 0.001280, 0.000104, 0.000300
92349, 611516831.406300, 0.003411, 0.000282, 0.001215, 0.000102, 0.000300
92353, 611516851.945900, 0.003230, 0.000159, 0.001266, 0.000115, 0.000304
92357, 611516871.138000, 0.003233, 0.000145, 0.001222, 0.000104, 0.000300
92361, 611516890.846300, 0.003363, 0.000337, 0.001280, 0.000106, 0.000300
92365, 611516911.680000, 0.003316, 0.000148, 0.001234, 0.000099, 0.000285
92369, 611516931.745000, 0.003371, 0.000233, 0.001207, 0.000103, 0.000294
92373, 611516954.503000, 0.003382, 0.000156, 0.001317, 0.000107, 0.000300
92377, 611516971.536600, 0.003360, 0.000237, 0.001216, 0.000104, 0.000302
92381, 611516990.797200, 0.003298, 0.000334, 0.001211, 0.000108, 0.000290
92385, 611517011.194500, 0.003418, 0.000147, 0.001238, 0.000102, 0.000291
92389, 611517031.909300, 0.003207, 0.000147, 0.001252, 0.000103, 0.000316
92392, 611517050.733500, 0.003396, 0.000263, 0.001228, 0.000101, 0.000288
92397, 611517071.192600, 0.003260, 0.000148, 0.001172, 0.000128, 0.000294
92401, 611517091.971400, 0.003406, 0.000257, 0.001204, 0.000100, 0.000289
92405, 611517111.306600, 0.003245, 0.000169, 0.001358, 0.000117, 0.000313
92409, 611517131.615400, 0.003423, 0.000287, 0.001251, 0.000106, 0.000313
92413, 611517151.863000, 0.003340, 0.000167, 0.001191, 0.000101, 0.000296
92417, 611517170.810300, 0.003413, 0.000180, 0.001121, 0.000103, 0.000312
92421, 611517190.804600, 0.003236, 0.000361, 0.001716, 0.000122, 0.000294
92425, 611517210.820000, 0.003327, 0.000293, 0.001273, 0.000103, 0.000293
92429, 611517230.886300, 0.003308, 0.000328, 0.001168, 0.000099, 0.000295
92433, 611517251.841100, 0.003345, 0.000320, 0.001245, 0.000105, 0.000292
92437, 611517271.349300, 0.003227, 0.000158, 0.001209, 0.000111, 0.000291
92441, 611517291.633600, 0.003415, 0.000269, 0.001459, 0.000112, 0.000291
92445, 611517311.883100, 0.003406, 0.000155, 0.001184, 0.000107, 0.000309
92449, 611517331.771600, 0.003350, 0.000286, 0.001180, 0.000113, 0.000299
92453, 611517351.684300, 0.003185, 0.000138, 0.001197, 0.000110, 0.000302
92457, 611517371.031600, 0.003325, 0.000287, 0.001202, 0.000104, 0.000305
92461, 611517391.750500, 0.003330, 0.000325, 0.001204, 0.000108, 0.000307
92465, 611517411.875600, 0.003367, 0.000151, 0.001249, 0.000104, 0.000306
92468, 611517430.787300, 0.003388, 0.000213, 0.001190, 0.000111, 0.000281
92473, 611517451.813200, 0.003311, 0.000151, 0.001217, 0.000105, 0.000306
92477, 611517471.633200, 0.003352, 0.000181, 0.001501, 0.000116, 0.000284
92481, 611517491.746900, 0.003270, 0.000252, 0.001304, 0.000107, 0.000301
92485, 611517511.033700, 0.003225, 0.000177, 0.001212, 0.000105, 0.000284
92489, 611517530.772800, 0.003217, 0.000142, 0.001279, 0.000103, 0.000275
92493, 611517551.439700, 0.003369, 0.000254, 0.001153, 0.000099, 0.000263
92497, 611517571.518000, 0.003688, 0.000137, 0.001179, 0.000098, 0.000265
92501, 611517591.440100, 0.003241, 0.000366, 0.001323, 0.000115, 0.000242
92505, 611517611.898700, 0.003355, 0.000330, 0.001327, 0.000098, 0.000241
92509, 611517631.999400, 0.003346, 0.000238, 0.001237, 0.000105, 0.000238
92513, 611517651.424700, 0.003379, 0.000281, 0.001297, 0.000102, 0.000240
92517, 611517671.472400, 0.003269, 0.000174, 0.001301, 0.000116, 0.000240
92521, 611517691.534200, 0.003369, 0.000259, 0.001253, 0.000103, 0.000240
92525, 611517711.106700, 0.003437, 0.000299, 0.001255, 0.000102, 0.000222
92529, 611517730.866800, 0.003359, 0.000350, 0.001168, 0.000103, 0.000223
92533, 611517751.745000, 0.003238, 0.000151, 0.001283, 0.000107, 0.000214
92537, 611517771.040400, 0.003366, 0.000191, 0.001234, 0.000098, 0.000212
92541, 611517792.038500, 0.003595, 0.000166, 0.001367, 0.000104, 0.000210
92545, 611517811.739000, 0.003403, 0.000181, 0.001192, 0.000102, 0.000209
92549, 611517830.756800, 0.003183, 0.000149, 0.001304, 0.000105, 0.000212
92553, 611517851.575600, 0.003400, 0.000209, 0.001241, 0.000095, 0.000176
92557, 611517870.992100, 0.003260, 0.000163, 0.001260, 0.000115, 0.000183
92561, 611517890.829400, 0.003345, 0.000229, 0.001178, 0.000098, 0.000142
92565, 611517911.264600, 0.003373, 0.000340, 0.001228, 0.000119, 0.000135
92569, 611517931.133700, 0.003391, 0.000241, 0.001214, 0.000102, 0.000136
92573, 611517952.007700, 0.003359, 0.000145, 0.001221, 0.000102, 0.000136
92577, 611517971.723800, 0.003455, 0.000205, 0.001276, 0.000107, 0.000115
92581, 611517990.794900, 0.003232, 0.000235, 0.001267, 0.000117, 0.000116
92585, 611518011.461900, 0.003256, 0.000157, 0.001378, 0.000101, 0.000116
92589, 611518032.347000, 0.003309, 0.000332, 0.001187, 0.000101, 0.000120
92597, 611518071.285500, 0.003185, 0.000140, 0.001271, 0.000104, 0.000119
92601, 611518091.512000, 0.003505, 0.000165, 0.001245, 0.000104, 0.000119
92605, 611518111.010100, 0.003248, 0.000147, 0.001183, 0.000102, 0.000119
92609, 611518131.625600, 0.003294, 0.000145, 0.001216, 0.000094, 0.000118
92613, 611518152.222100, 0.003186, 0.000161, 0.001405, 0.000109, 0.000116
92617, 611518171.664900, 0.003232, 0.000173, 0.001288, 0.000109, 0.000116
92621, 611518191.797900, 0.003415, 0.000201, 0.001258, 0.000105, 0.000116
92625, 611518211.202600, 0.003423, 0.000342, 0.001273, 0.000103, 0.000116
92629, 611518231.124300, 0.003254, 0.000155, 0.001244, 0.000109, 0.000116
92633, 611518251.565300, 0.003336, 0.000155, 0.001330, 0.000113, 0.000108
92637, 611518270.777200, 0.003399, 0.000212, 0.001229, 0.000098, 0.000099
92641, 611518291.066800, 0.003755, 0.000196, 0.001456, 0.000123, 0.000097
92645, 611518312.052600, 0.003234, 0.000165, 0.001310, 0.000105, 0.000093
92649, 611518331.794300, 0.003355, 0.000247, 0.001330, 0.000109, 0.000091
92653, 611518352.017900, 0.003355, 0.000278, 0.001338, 0.000104, 0.000095
92657, 611518371.784800, 0.003416, 0.000281, 0.001175, 0.000102, 0.000095
92661, 611518391.291300, 0.003225, 0.000369, 0.001363, 0.000104, 0.000097
92665, 611518411.392400, 0.003370, 0.000262, 0.001318, 0.000102, 0.000098
92669, 611518431.092300, 0.003420, 0.000150, 0.001179, 0.000103, 0.000096
92673, 611518450.880300, 0.003415, 0.000207, 0.001198, 0.000103, 0.000096
92677, 611518471.644200, 0.003183, 0.000139, 0.001218, 0.000106, 0.000093
92681, 611518491.592300, 0.003292, 0.000219, 0.001309, 0.000108, 0.000093
92685, 611518511.953100, 0.003365, 0.000333, 0.001194, 0.000102, 0.000094
92689, 611518531.461900, 0.003292, 0.000144, 0.001165, 0.000100, 0.000094
92693, 611518551.911700, 0.003236, 0.000156, 0.001211, 0.000099, 0.000096
92697, 611518571.998400, 0.003365, 0.000331, 0.001229, 0.000106, 0.000101
92701, 611518592.123400, 0.003284, 0.000226, 0.001327, 0.000112, 0.000103
92705, 611518611.722800, 0.003365, 0.000295, 0.001224, 0.000105, 0.000102
92709, 611518631.257000, 0.003329, 0.000157, 0.001348, 0.000110, 0.000100
92713, 611518651.658100, 0.003388, 0.000196, 0.001281, 0.000108, 0.000100
92717, 611518671.806100, 0.003326, 0.000261, 0.001145, 0.000100, 0.000108
92721, 611518691.380800, 0.003335, 0.000362, 0.001238, 0.000100, 0.000108
92725, 611518711.374200, 0.003231, 0.000151, 0.001328, 0.000114, 0.000111
92729, 611518731.611700, 0.003352, 0.000163, 0.001211, 0.000107, 0.000111
92733, 611518751.975500, 0.003354, 0.000143, 0.001195, 0.000098, 0.000107
92737, 611518771.457200, 0.003370, 0.000244, 0.001212, 0.000097, 0.000107
92741, 611518791.291600, 0.003229, 0.000408, 0.001412, 0.000124, 0.000103
92745, 611518811.408900, 0.003382, 0.000264, 0.001261, 0.000102, 0.000101
92749, 611518831.296300, 0.003358, 0.000331, 0.001210, 0.000109, 0.000100
92753, 611518851.329900, 0.003261, 0.000143, 0.001201, 0.000102, 0.000101
92757, 611518871.897700, 0.003217, 0.000200, 0.001402, 0.000122, 0.000103
92761, 611518891.375300, 0.003371, 0.000351, 0.001469, 0.000105, 0.000106
92765, 611518911.750400, 0.003365, 0.000156, 0.001354, 0.000101, 0.000105
92769, 611518931.449900, 0.003305, 0.000141, 0.001174, 0.000103, 0.000105
92773, 611518952.114500, 0.003229, 0.000157, 0.001181, 0.000101, 0.000104
92777, 611518971.908700, 0.003353, 0.000322, 0.001281, 0.000102, 0.000099
92781, 611518991.065200, 0.003221, 0.000245, 0.001394, 0.000112, 0.000100
92785, 611519011.614700, 0.003736, 0.000147, 0.001231, 0.000105, 0.000102
92790, 611519035.746000, 0.003223, 0.000171, 0.001301, 0.000117, 0.000105
92793, 611519051.323500, 0.003227, 0.000164, 0.001324, 0.000116, 0.000106
92797, 611519071.817700, 0.003266, 0.000151, 0.001235, 0.000105, 0.000100
92801, 611519091.886800, 0.003278, 0.000239, 0.001318, 0.000113, 0.000103
92805, 611519111.069500, 0.003229, 0.000151, 0.001297, 0.000105, 0.000103
92809, 611519131.604800, 0.003373, 0.000216, 0.001305, 0.000108, 0.000104
92813, 611519150.913500, 0.003230, 0.000178, 0.001413, 0.000118, 0.000104
92817, 611519171.648100, 0.003483, 0.000296, 0.001343, 0.000117, 0.000106
92821, 611519191.986100, 0.003236, 0.000263, 0.001542, 0.000124, 0.000111
92825, 611519210.939100, 0.003242, 0.000195, 0.001409, 0.000115, 0.000113
92829, 611519231.185100, 0.003429, 0.000231, 0.001339, 0.000112, 0.000115
92833, 611519251.645500, 0.003369, 0.000210, 0.001234, 0.000101, 0.000116
92837, 611519271.796800, 0.003387, 0.000158, 0.001237, 0.000116, 0.000116
92841, 611519290.960000, 0.003225, 0.000250, 0.001289, 0.000110, 0.000112
92845, 611519310.944600, 0.003420, 0.000271, 0.001306, 0.000113, 0.000112
92849, 611519331.865800, 0.003383, 0.000229, 0.001293, 0.000106, 0.000112
92853, 611519350.988000, 0.003263, 0.000161, 0.001319, 0.000116, 0.000112
92857, 611519371.445900, 0.003387, 0.000251, 0.001208, 0.000099, 0.000111
92861, 611519391.318600, 0.003560, 0.000169, 0.001502, 0.000123, 0.000108
92865, 611519411.519700, 0.003423, 0.000388, 0.001347, 0.000112, 0.000108
92869, 611519431.316200, 0.003227, 0.000169, 0.001310, 0.000116, 0.000105
92873, 611519451.418800, 0.003371, 0.000176, 0.001360, 0.000107, 0.000107
92877, 611519471.834900, 0.003335, 0.000141, 0.001222, 0.000096, 0.000108
92881, 611519490.794400, 0.003370, 0.000222, 0.001228, 0.000110, 0.000107
92885, 611519510.844800, 0.003238, 0.000175, 0.001305, 0.000113, 0.000105
92889, 611519531.209700, 0.003225, 0.000160, 0.001345, 0.000122, 0.000104
92893, 611519551.024900, 0.003425, 0.000318, 0.001171, 0.000101, 0.000103
92897, 611519571.537300, 0.003370, 0.000148, 0.001217, 0.000098, 0.000102
92907, 611519624.875600, 0.003410, 0.000280, 0.001286, 0.000117, 0.000098
92908, 611519625.136100, 0.003247, 0.000176, 0.001369, 0.000144, 0.000098
92909, 611519632.846100, 0.003253, 0.000174, 0.001297, 0.000114, 0.000093
92913, 611519651.361400, 0.003314, 0.000153, 0.001181, 0.000104, 0.000093
92917, 611519672.926400, 0.003354, 0.000245, 0.001384, 0.000120, 0.000092
92921, 611519691.873900, 0.003159, 0.000268, 0.001398, 0.000116, 0.000095
92925, 611519712.277200, 0.003422, 0.000290, 0.001240, 0.000128, 0.000098
92929, 611519732.041100, 0.003363, 0.000245, 0.001238, 0.000103, 0.000102
92934, 611519755.701200, 0.003419, 0.000329, 0.001207, 0.000104, 0.000105
92937, 611519772.384000, 0.003371, 0.000260, 0.001293, 0.000103, 0.000104
92941, 611519791.929100, 0.003495, 0.000156, 0.001252, 0.000109, 0.000105
92945, 611519810.962200, 0.003383, 0.000151, 0.001204, 0.000105, 0.000103
92949, 611519832.150500, 0.003179, 0.000150, 0.001209, 0.000110, 0.000103
92953, 611519851.485700, 0.003400, 0.000278, 0.001205, 0.000103, 0.000103
92957, 611519872.611300, 0.003418, 0.000313, 0.001242, 0.000110, 0.000105
92961, 611519891.301700, 0.003178, 0.000165, 0.001379, 0.000121, 0.000106
92965, 611519912.075000, 0.003355, 0.000313, 0.001297, 0.000103, 0.000107
92969, 611519931.142100, 0.003215, 0.000153, 0.001246, 0.000107, 0.000109
92973, 611519951.903800, 0.003404, 0.000308, 0.001241, 0.000120, 0.000112
92977, 611519970.931700, 0.003370, 0.000344, 0.001181, 0.000099, 0.000126
92981, 611519992.615400, 0.003233, 0.000363, 0.001393, 0.000110, 0.000128
92985, 611520011.373600, 0.003213, 0.000211, 0.001402, 0.000129, 0.000128
92989, 611520031.984000, 0.003370, 0.000168, 0.001312, 0.000106, 0.000132
92993, 611520050.984500, 0.003316, 0.000196, 0.001158, 0.000105, 0.000129
92997, 611520071.922200, 0.003197, 0.000157, 0.001234, 0.000113, 0.000134
93001, 611520090.915000, 0.003184, 0.000388, 0.001401, 0.000140, 0.000131
93005, 611520112.669100, 0.003406, 0.000326, 0.001174, 0.000098, 0.000129
93009, 611520131.610100, 0.003447, 0.000259, 0.001674, 0.000129, 0.000124
93013, 611520151.980400, 0.003198, 0.000188, 0.001420, 0.000114, 0.000122
93017, 611520171.700000, 0.003327, 0.000311, 0.001231, 0.000102, 0.000123
93021, 611520191.746700, 0.003413, 0.000244, 0.001312, 0.000110, 0.000123
93025, 611520211.835600, 0.003285, 0.000175, 0.001368, 0.000110, 0.000123
93029, 611520232.687300, 0.003261, 0.000165, 0.001242, 0.000106, 0.000124
93033, 611520251.576200, 0.003398, 0.000190, 0.001608, 0.000120, 0.000122
93037, 611520270.939000, 0.003224, 0.000197, 0.001365, 0.000114, 0.000116
93041, 611520291.779500, 0.003369, 0.000255, 0.001241, 0.000115, 0.000116
93045, 611520310.895800, 0.003233, 0.000158, 0.001216, 0.000105, 0.000114
93049, 611520331.461500, 0.003235, 0.000169, 0.001306, 0.000118, 0.000115
93067, 611520421.979800, 0.003234, 0.000162, 0.001352, 0.000117, 0.000112
93068, 611520424.905900, 0.003390, 0.000219, 0.001281, 0.000111, 0.000112
93069, 611520429.894200, 0.003367, 0.000291, 0.001235, 0.000105, 0.000093
93070, 611520434.805600, 0.003412, 0.000206, 0.001222, 0.000098, 0.000093
93071, 611520440.285800, 0.003238, 0.000267, 0.001469, 0.000120, 0.000089
93073, 611520453.092800, 0.003407, 0.000334, 0.001308, 0.000112, 0.000089
93077, 611520472.355400, 0.003238, 0.000167, 0.001418, 0.000120, 0.000085
93081, 611520491.149700, 0.003215, 0.000184, 0.001348, 0.000119, 0.000085
93085, 611520514.011400, 0.003359, 0.000282, 0.001259, 0.000104, 0.000088
93089, 611520531.475900, 0.003408, 0.000162, 0.001212, 0.000106, 0.000088
93093, 611520553.940000, 0.003258, 0.000148, 0.001205, 0.000105, 0.000092
93097, 611520573.084700, 0.003369, 0.000262, 0.001234, 0.000099, 0.000093
93101, 611520592.186900, 0.003225, 0.000163, 0.001455, 0.000106, 0.000093
93105, 611520611.264700, 0.003371, 0.000272, 0.001177, 0.000103, 0.000095
93109, 611520633.641800, 0.003316, 0.000290, 0.001238, 0.000114, 0.000094
93113, 611520652.427500, 0.003372, 0.000231, 0.001322, 0.000112, 0.000095
93117, 611520671.444700, 0.003330, 0.000148, 0.001248, 0.000094, 0.000101
93121, 611520693.764500, 0.003227, 0.000163, 0.001352, 0.000117, 0.000101
93125, 611520712.738100, 0.003232, 0.000202, 0.001460, 0.000114, 0.000103
93129, 611520731.461300, 0.003247, 0.000187, 0.001345, 0.000123, 0.000101
93133, 611520751.254300, 0.003383, 0.000296, 0.001199, 0.000102, 0.000101
93137, 611520773.164300, 0.003393, 0.000154, 0.001275, 0.000106, 0.000101
93141, 611520792.800300, 0.003235, 0.000149, 0.001303, 0.000109, 0.000104
93145, 611520812.083900, 0.003372, 0.000190, 0.001412, 0.000108, 0.000104
93149, 611520831.466900, 0.003413, 0.000316, 0.001197, 0.000098, 0.000105
93153, 611520853.391400, 0.003340, 0.000220, 0.001349, 0.000108, 0.000105
93157, 611520872.319900, 0.003231, 0.000156, 0.001317, 0.000114, 0.000110
93161, 611520891.292600, 0.003368, 0.000200, 0.001262, 0.000107, 0.000110
93165, 611520913.450900, 0.003284, 0.000183, 0.001314, 0.000116, 0.000108
93169, 611520932.517400, 0.003370, 0.000259, 0.001397, 0.000111, 0.000107
93173, 611520950.943400, 0.003232, 0.000161, 0.001216, 0.000106, 0.000106
93177, 611520972.360900, 0.003356, 0.000234, 0.001376, 0.000123, 0.000105
93181, 611520990.805900, 0.003224, 0.000278, 0.001349, 0.000120, 0.000104
93185, 611521012.618400, 0.003394, 0.000212, 0.001386, 0.000119, 0.000103
93189, 611521031.986700, 0.003324, 0.000344, 0.001297, 0.000115, 0.000102
93193, 611521050.986400, 0.003230, 0.000178, 0.001365, 0.000119, 0.000102
93197, 611521073.222700, 0.003238, 0.000175, 0.001490, 0.000127, 0.000097
93201, 611521092.487900, 0.003304, 0.000374, 0.001245, 0.000108, 0.000097
93205, 611521111.549400, 0.003401, 0.000306, 0.001320, 0.000130, 0.000097
93209, 611521130.847200, 0.003196, 0.000157, 0.001361, 0.000118, 0.000096
93213, 611521153.337500, 0.003292, 0.000154, 0.001256, 0.000108, 0.000099
93217, 611521172.220400, 0.003422, 0.000274, 0.001259, 0.000109, 0.000102
93221, 611521191.581600, 0.003225, 0.000152, 0.001426, 0.000108, 0.000101
93225, 611521213.440700, 0.003371, 0.000206, 0.001296, 0.000110, 0.000101
93229, 611521233.075600, 0.003215, 0.000150, 0.001202, 0.000110, 0.000102
93233, 611521251.741200, 0.003374, 0.000154, 0.001151, 0.000109, 0.000104
93237, 611521273.617400, 0.003199, 0.000155, 0.001281, 0.000109, 0.000098
93241, 611521291.835000, 0.003387, 0.000388, 0.001364, 0.000109, 0.000098
93416, 611522165.290900, 0.003256, 0.000165, 0.001376, 0.000115, 0.000100
93417, 611522169.861200, 0.003362, 0.000165, 0.001348, 0.000110, 0.000100
93418, 611522174.893800, 0.003377, 0.000340, 0.001212, 0.000107, 0.000098
93419, 611522179.921500, 0.003385, 0.000220, 0.001355, 0.000101, 0.000098
93420, 611522184.846300, 0.003399, 0.000180, 0.001291, 0.000104, 0.000096
93421, 611522189.745300, 0.003356, 0.000216, 0.001223, 0.000109, 0.000096
93422, 611522194.932800, 0.003374, 0.000340, 0.001226, 0.000102, 0.000094
93423, 611522199.877100, 0.003382, 0.000312, 0.001240, 0.000107, 0.000094
93424, 611522204.894300, 0.003412, 0.000315, 0.001221, 0.000100, 0.000092
93425, 611522209.804800, 0.003427, 0.000217, 0.001227, 0.000100, 0.000092
93426, 611522214.603600, 0.003266, 0.000151, 0.001243, 0.000104, 0.000087
93427, 611522219.777600, 0.003308, 0.000320, 0.001163, 0.000103, 0.000087
93428, 611522224.894100, 0.003405, 0.000282, 0.001259, 0.000104, 0.000082
93429, 611522229.821300, 0.003375, 0.000183, 0.001322, 0.000103, 0.000082
93430, 611522234.586100, 0.003233, 0.000149, 0.001248, 0.000108, 0.000078
93431, 611522239.934200, 0.003413, 0.000343, 0.001220, 0.000110, 0.000078
93432, 611522245.007800, 0.003384, 0.000375, 0.001289, 0.000112, 0.000076
93433, 611522250.871000, 0.003330, 0.000157, 0.001249, 0.000105, 0.000076
93434, 611522254.925600, 0.003365, 0.000353, 0.001208, 0.000101, 0.000076
93435, 611522259.958100, 0.003420, 0.000294, 0.001285, 0.000111, 0.000074
93436, 611522264.899000, 0.003433, 0.000278, 0.001248, 0.000100, 0.000074
93437, 611522269.813500, 0.003419, 0.000303, 0.001157, 0.000093, 0.000071
93438, 611522279.099800, 0.003379, 0.000212, 0.001162, 0.000096, 0.000071
93442, 611522297.950700, 0.003260, 0.000154, 0.001264, 0.000101, 0.000069
93447, 611522320.055000, 0.003354, 0.000306, 0.001258, 0.000095, 0.000069
93450, 611522336.840200, 0.003414, 0.000349, 0.001272, 0.000110, 0.000069
93455, 611522360.036500, 0.003389, 0.000252, 0.001216, 0.000114, 0.000072
93458, 611522376.892500, 0.003663, 0.000165, 0.001298, 0.000109, 0.000073
93462, 611522399.090400, 0.003380, 0.000284, 0.001212, 0.000099, 0.000077
93466, 611522418.155400, 0.003313, 0.000326, 0.001257, 0.000102, 0.000076
93470, 611522437.052500, 0.003365, 0.000166, 0.001378, 0.000113, 0.000079
93474, 611522459.288100, 0.003239, 0.000187, 0.001420, 0.000114, 0.000079
93478, 611522478.053200, 0.003347, 0.000351, 0.001154, 0.000105, 0.000081
93482, 611522497.188300, 0.003408, 0.000218, 0.001191, 0.000102, 0.000081
93486, 611522519.363200, 0.003428, 0.000287, 0.001165, 0.000093, 0.000082
93490, 611522538.777400, 0.003274, 0.000154, 0.001227, 0.000106, 0.000082
93494, 611522558.130800, 0.003412, 0.000193, 0.001262, 0.000095, 0.000083
93498, 611522577.314900, 0.003424, 0.000186, 0.001255, 0.000102, 0.000081
93502, 611522599.384600, 0.003365, 0.000388, 0.001173, 0.000099, 0.000083
93506, 611522618.084100, 0.003286, 0.000157, 0.001274, 0.000113, 0.000083
93510, 611522637.362600, 0.003365, 0.000214, 0.001160, 0.000101, 0.000084
93514, 611522657.219000, 0.003391, 0.000300, 0.001603, 0.000124, 0.000085
93518, 611522679.715000, 0.003389, 0.000508, 0.001311, 0.000112, 0.000085
93522, 611522698.654500, 0.003367, 0.000260, 0.001333, 0.000104, 0.000086
93526, 611522717.886200, 0.003367, 0.000337, 0.001262, 0.000123, 0.000086
93530, 611522737.437000, 0.003395, 0.000148, 0.001219, 0.000099, 0.000086
93534, 611522757.563200, 0.003407, 0.000175, 0.001286, 0.000104, 0.000086
93538, 611522778.515900, 0.003382, 0.000244, 0.001212, 0.000105, 0.000086
93542, 611522798.217600, 0.003316, 0.000161, 0.001250, 0.000113, 0.000103
93547, 611522820.283100, 0.003614, 0.000182, 0.001214, 0.000106, 0.000107
93550, 611522837.872300, 0.003362, 0.000253, 0.001154, 0.000095, 0.000107
93554, 611522857.323300, 0.003239, 0.000184, 0.001379, 0.000114, 0.000108
93558, 611522879.637800, 0.003228, 0.000149, 0.001206, 0.000085, 0.000109
93562, 611522898.283800, 0.003406, 0.000173, 0.001226, 0.000101, 0.000110
93566, 611522917.625100, 0.003411, 0.000328, 0.001229, 0.000100, 0.000111
93570, 611522939.079300, 0.003235, 0.000150, 0.001245, 0.000106, 0.000113
93574, 611522957.194500, 0.003281, 0.000313, 0.001261, 0.000094, 0.000113
93578, 611522976.805300, 0.003368, 0.000316, 0.001514, 0.000116, 0.000115
93582, 611522999.563400, 0.003415, 0.000336, 0.001243, 0.000101, 0.000113
93586, 611523018.791900, 0.003232, 0.000145, 0.001186, 0.000091, 0.000113
93590, 611523037.687900, 0.003363, 0.000256, 0.001258, 0.000098, 0.000113
93594, 611523059.990200, 0.003361, 0.000370, 0.001199, 0.000100, 0.000112
93598, 611523079.829700, 0.003410, 0.000248, 0.001563, 0.000118, 0.000112
93602, 611523098.719300, 0.003242, 0.000164, 0.001158, 0.000105, 0.000112
93606, 611523117.159900, 0.003318, 0.000312, 0.001281, 0.000104, 0.000112
93610, 611523138.393200, 0.003379, 0.000203, 0.001175, 0.000097, 0.000113
93614, 611523157.259800, 0.003351, 0.000171, 0.001156, 0.000095, 0.000112
93618, 611523178.998600, 0.003227, 0.000156, 0.001270, 0.000102, 0.000117
93622, 611523197.423700, 0.003233, 0.000192, 0.001683, 0.000124, 0.000096
93626, 611523219.739200, 0.003369, 0.000290, 0.001199, 0.000099, 0.000092
93630, 611523238.548500, 0.003233, 0.000148, 0.001264, 0.000099, 0.000090
93634, 611523258.080000, 0.003231, 0.000151, 0.001222, 0.000107, 0.000090
93638, 611523277.607500, 0.003400, 0.000304, 0.001245, 0.000105, 0.000088
93642, 611523297.105100, 0.003396, 0.000213, 0.001166, 0.000099, 0.000088
93646, 611523317.303500, 0.003333, 0.000264, 0.001163, 0.000095, 0.000088
93650, 611523336.914800, 0.003254, 0.000144, 0.001286, 0.000101, 0.000087
93655, 611523359.642900, 0.003325, 0.000155, 0.001192, 0.000100, 0.000088
93658, 611523378.444200, 0.003243, 0.000147, 0.001217, 0.000104, 0.000086
93662, 611523397.214700, 0.003375, 0.000244, 0.001206, 0.000102, 0.000089
93666, 611523419.130900, 0.003231, 0.000156, 0.001248, 0.000111, 0.000091
93670, 611523438.213500, 0.003412, 0.000340, 0.001333, 0.000116, 0.000091
93674, 611523457.013200, 0.003331, 0.000279, 0.001266, 0.000099, 0.000093
93678, 611523478.276800, 0.003408, 0.000246, 0.001233, 0.000106, 0.000094
93682, 611523497.495700, 0.003237, 0.000176, 0.001230, 0.000118, 0.000096
93686, 611523519.636700, 0.003388, 0.000347, 0.001172, 0.000098, 0.000097
93690, 611523538.808700, 0.003414, 0.000310, 0.001264, 0.000105, 0.000095
93694, 611523558.154100, 0.003273, 0.000160, 0.001231, 0.000108, 0.000094
93698, 611523577.493400, 0.003238, 0.000159, 0.001283, 0.000109, 0.000089
93702, 611523599.135700, 0.003238, 0.000191, 0.001406, 0.000119, 0.000090
93706, 611523618.194900, 0.003229, 0.000166, 0.001244, 0.000106, 0.000090
93710, 611523637.713000, 0.003335, 0.000301, 0.001270, 0.000108, 0.000092
93714, 611523659.477700, 0.003234, 0.000150, 0.001245, 0.000111, 0.000092
93718, 611523677.800700, 0.003235, 0.000162, 0.001301, 0.000098, 0.000092
93722, 611523696.895400, 0.003411, 0.000185, 0.001167, 0.000106, 0.000094
93726, 611523718.765400, 0.003226, 0.000185, 0.001506, 0.000164, 0.000093
93730, 611523737.475500, 0.003223, 0.000173, 0.001525, 0.000124, 0.000094
93734, 611523759.357400, 0.003224, 0.000160, 0.001337, 0.000105, 0.000097
93738, 611523777.562000, 0.003219, 0.000163, 0.001489, 0.000108, 0.000096
93742, 611523799.696500, 0.003229, 0.000178, 0.001508, 0.000187, 0.000096
93746, 611523818.935500, 0.003224, 0.000195, 0.001336, 0.000124, 0.000094
93750, 611523838.394100, 0.003225, 0.000169, 0.001334, 0.000148, 0.000095
93754, 611523857.612200, 0.003227, 0.000175, 0.001355, 0.000118, 0.000093
93758, 611523879.458000, 0.003263, 0.000175, 0.001517, 0.000125, 0.000096
93762, 611523897.911000, 0.003236, 0.000180, 0.001309, 0.000119, 0.000096
93766, 611523919.479900, 0.003252, 0.000163, 0.001389, 0.000113, 0.000097
93770, 611523937.916600, 0.003234, 0.000163, 0.001297, 0.000119, 0.000099
93774, 611523956.846700, 0.003211, 0.000160, 0.001306, 0.000110, 0.000100
93778, 611523978.767700, 0.003251, 0.000195, 0.001557, 0.000132, 0.000103
93782, 611523997.618400, 0.003227, 0.000169, 0.001292, 0.000112, 0.000102
93786, 611524019.270700, 0.003232, 0.000164, 0.001317, 0.000104, 0.000103
93790, 611524038.024800, 0.003482, 0.000145, 0.001271, 0.000111, 0.000101
93794, 611524059.399400, 0.003226, 0.000182, 0.001427, 0.000116, 0.000100
93798, 611524077.940500, 0.003228, 0.000191, 0.001636, 0.000186, 0.000101
93803, 611524099.584800, 0.003237, 0.000153, 0.001252, 0.000110, 0.000101
93806, 611524117.984700, 0.003271, 0.000181, 0.001279, 0.000117, 0.000105
93810, 611524139.007000, 0.003237, 0.000147, 0.001227, 0.000105, 0.000105
93814, 611524157.739500, 0.003368, 0.000197, 0.001238, 0.000103, 0.000102
93818, 611524179.424300, 0.003234, 0.000172, 0.001354, 0.000117, 0.000105
93822, 611524197.666800, 0.003231, 0.000183, 0.001380, 0.000122, 0.000103
93826, 611524218.808500, 0.003255, 0.000188, 0.001387, 0.000126, 0.000103
93830, 611524237.738700, 0.003288, 0.000158, 0.001352, 0.000111, 0.000102
93835, 611524259.743700, 0.003226, 0.000170, 0.001260, 0.000116, 0.000104
93838, 611524278.702100, 0.003220, 0.000327, 0.001281, 0.000127, 0.000102
93842, 611524297.072900, 0.003285, 0.000195, 0.001377, 0.000120, 0.000104
93846, 611524319.178000, 0.003214, 0.000164, 0.001321, 0.000107, 0.000102
93850, 611524338.395600, 0.003258, 0.000165, 0.001265, 0.000106, 0.000102
93854, 611524359.369000, 0.003362, 0.000160, 0.001283, 0.000110, 0.000104
93858, 611524379.402900, 0.003237, 0.000303, 0.001339, 0.000126, 0.000103
93862, 611524398.075400, 0.003230, 0.000178, 0.001409, 0.000119, 0.000105
93866, 611524418.859300, 0.003272, 0.000155, 0.001341, 0.000113, 0.000107
93871, 611524439.974300, 0.003221, 0.000158, 0.001510, 0.000117, 0.000109
93874, 611524456.865200, 0.003230, 0.000183, 0.001305, 0.000111, 0.000110
93879, 611524479.830600, 0.003254, 0.000169, 0.001298, 0.000118, 0.000111
93882, 611524498.805200, 0.003282, 0.000178, 0.001303, 0.000122, 0.000113
93886, 611524518.051200, 0.003263, 0.000156, 0.001260, 0.000109, 0.000108
93890, 611524538.022900, 0.003212, 0.000186, 0.001277, 0.000115, 0.000107
93894, 611524557.430900, 0.003375, 0.000234, 0.001202, 0.000111, 0.000107
93898, 611524577.129600, 0.003223, 0.000227, 0.001381, 0.000113, 0.000106
93902, 611524598.271800, 0.003211, 0.000183, 0.001341, 0.000146, 0.000110
93906, 611524617.017400, 0.003223, 0.000169, 0.001279, 0.000116, 0.000109
93910, 611524639.317700, 0.003213, 0.000159, 0.001321, 0.000124, 0.000109
93914, 611524658.071700, 0.003266, 0.000171, 0.001263, 0.000105, 0.000109
93918, 611524679.345100, 0.003228, 0.000346, 0.001364, 0.000123, 0.000110
93922, 611524698.011700, 0.003227, 0.000163, 0.001312, 0.000118, 0.000105
93926, 611524717.093700, 0.003271, 0.000166, 0.001262, 0.000106, 0.000107
93930, 611524738.630000, 0.003345, 0.000332, 0.001220, 0.000105, 0.000107
93934, 611524757.413300, 0.003463, 0.000171, 0.001378, 0.000242, 0.000104
93938, 611524778.918100, 0.003255, 0.000209, 0.001758, 0.000126, 0.000104
93942, 611524797.700800, 0.003235, 0.000175, 0.001343, 0.000112, 0.000103
93947, 611524819.829600, 0.003231, 0.000169, 0.001312, 0.000106, 0.000100
93950, 611524839.386300, 0.003207, 0.000181, 0.001266, 0.000109, 0.000099
93955, 611524860.168600, 0.003207, 0.000176, 0.001349, 0.000111, 0.000100
93958, 611524879.676100, 0.003235, 0.000285, 0.001422, 0.000118, 0.000099
93962, 611524899.363300, 0.003222, 0.000214, 0.001565, 0.000110, 0.000097
93966, 611524918.562200, 0.003231, 0.000167, 0.001371, 0.000108, 0.000105
93970, 611524938.622500, 0.003235, 0.000185, 0.001415, 0.000108, 0.000107
93974, 611524957.416300, 0.003223, 0.000184, 0.001420, 0.000113, 0.000106
93978, 611524979.388300, 0.003218, 0.000231, 0.001312, 0.000125, 0.000107
93982, 611524998.144900, 0.003218, 0.000154, 0.001281, 0.000098, 0.000104
93986, 611525019.651000, 0.003223, 0.000167, 0.001362, 0.000113, 0.000104
93990, 611525038.000800, 0.003239, 0.000167, 0.001419, 0.000120, 0.000106
93994, 611525059.602000, 0.003251, 0.000165, 0.001243, 0.000104, 0.000105
93998, 611525078.580200, 0.003237, 0.000166, 0.001308, 0.000106, 0.000105
94002, 611525098.056000, 0.003240, 0.000164, 0.001284, 0.000118, 0.000109
94007, 611525119.606200, 0.003230, 0.000152, 0.001189, 0.000104, 0.000108
94010, 611525138.264700, 0.003259, 0.000167, 0.001400, 0.000114, 0.000107
94014, 611525157.292900, 0.003270, 0.000153, 0.001261, 0.000107, 0.000106
94018, 611525179.275100, 0.003224, 0.000302, 0.001438, 0.000132, 0.000105
94022, 611525198.109200, 0.003258, 0.000172, 0.001271, 0.000113, 0.000104
94027, 611525219.922500, 0.003242, 0.000185, 0.001338, 0.000117, 0.000106
94030, 611525239.250000, 0.003220, 0.000164, 0.001263, 0.000111, 0.000105
94034, 611525257.736700, 0.003221, 0.000175, 0.001394, 0.000123, 0.000106
94038, 611525279.667900, 0.003235, 0.000163, 0.001283, 0.000112, 0.000104
94042, 611525298.588500, 0.003228, 0.000181, 0.001438, 0.000111, 0.000103
94046, 611525317.344600, 0.003275, 0.000181, 0.001252, 0.000103, 0.000095
94050, 611525339.800800, 0.003225, 0.000165, 0.001276, 0.000111, 0.000095
94054, 611525358.131700, 0.003373, 0.000298, 0.001307, 0.000113, 0.000092
94059, 611525379.721500, 0.003204, 0.000174, 0.001338, 0.000119, 0.000089
94062, 611525398.226700, 0.003248, 0.000161, 0.001354, 0.000116, 0.000089
94066, 611525417.147400, 0.003223, 0.000173, 0.001282, 0.000107, 0.000091
94070, 611525439.102600, 0.003214, 0.000162, 0.001209, 0.000110, 0.000088
94074, 611525457.251800, 0.003238, 0.000170, 0.001299, 0.000123, 0.000088
94078, 611525478.932500, 0.003462, 0.000160, 0.001242, 0.000112, 0.000087
94082, 611525497.174600, 0.003223, 0.000163, 0.001693, 0.000111, 0.000084
94086, 611525518.965000, 0.003165, 0.000159, 0.001238, 0.000104, 0.000086
94090, 611525538.001100, 0.003396, 0.000364, 0.001146, 0.000098, 0.000085
94094, 611525559.291400, 0.003359, 0.000149, 0.001179, 0.000101, 0.000086
94098, 611525577.738000, 0.003235, 0.000158, 0.001462, 0.000134, 0.000087
94102, 611525596.816000, 0.003224, 0.000163, 0.001319, 0.000114, 0.000087
94106, 611525618.172300, 0.003218, 0.000178, 0.001381, 0.000112, 0.000087
94110, 611525637.508400, 0.003226, 0.000173, 0.001311, 0.000111, 0.000087
94114, 611525659.237000, 0.003247, 0.000194, 0.001345, 0.000106, 0.000086
94118, 611525678.218100, 0.003230, 0.000162, 0.001363, 0.000140, 0.000088
94122, 611525697.052600, 0.003218, 0.000178, 0.001290, 0.000124, 0.000089
94126, 611525718.236000, 0.003223, 0.000180, 0.001453, 0.000121, 0.000087
94130, 611525739.615300, 0.003206, 0.000189, 0.001352, 0.000122, 0.000088
94134, 611525757.570700, 0.003317, 0.000402, 0.001297, 0.000114, 0.000090
94138, 611525778.482600, 0.003401, 0.000209, 0.001210, 0.000104, 0.000090
94143, 611525800.435000, 0.003237, 0.000206, 0.001311, 0.000114, 0.000090
94146, 611525818.982800, 0.003258, 0.000166, 0.001358, 0.000117, 0.000089
94150, 611525838.128000, 0.003309, 0.000167, 0.001248, 0.000107, 0.000093
94154, 611525857.252100, 0.003232, 0.000157, 0.001219, 0.000109, 0.000093
94158, 611525878.235600, 0.003222, 0.000367, 0.001335, 0.000118, 0.000093
94162, 611525896.835900, 0.003232, 0.000170, 0.001349, 0.000117, 0.000092
94166, 611525918.448800, 0.003279, 0.000166, 0.001257, 0.000109, 0.000092
94170, 611525937.832000, 0.003426, 0.000376, 0.001228, 0.000102, 0.000094
94174, 611525959.634000, 0.003290, 0.000163, 0.001248, 0.000102, 0.000095
94178, 611525978.283400, 0.003224, 0.000196, 0.001354, 0.000115, 0.000095
94182, 611525997.156100, 0.003199, 0.000206, 0.001413, 0.000126, 0.000094
94186, 611526018.344700, 0.003278, 0.000163, 0.001346, 0.000118, 0.000094
94190, 611526037.144500, 0.003267, 0.000158, 0.001280, 0.000111, 0.000094
94194, 611526059.268800, 0.003238, 0.000217, 0.001438, 0.000129, 0.000093
94198, 611526078.148100, 0.003231, 0.000216, 0.001313, 0.000119, 0.000093
94202, 611526097.138200, 0.003228, 0.000164, 0.001327, 0.000169, 0.000091
94206, 611526116.969100, 0.003228, 0.000162, 0.001322, 0.000152, 0.000091
94210, 611526139.391900, 0.003231, 0.000160, 0.001372, 0.000112, 0.000090
94214, 611526158.490600, 0.003359, 0.000390, 0.001251, 0.000109, 0.000088
94218, 611526177.408900, 0.003243, 0.000152, 0.001258, 0.000106, 0.000088
94222, 611526199.375200, 0.003390, 0.000222, 0.001190, 0.000106, 0.000088
94226, 611526218.089500, 0.003232, 0.000157, 0.001298, 0.000096, 0.000089
94230, 611526238.328300, 0.003227, 0.000169, 0.001368, 0.000106, 0.000088
94234, 611526257.696300, 0.003362, 0.000380, 0.001526, 0.000116, 0.000088
94238, 611526276.832100, 0.003224, 0.000158, 0.001336, 0.000107, 0.000110
94242, 611526299.254900, 0.003274, 0.000181, 0.001357, 0.000118, 0.000111
94246, 611526319.501400, 0.003365, 0.000394, 0.001340, 0.000133, 0.000108
94250, 611526338.041100, 0.003354, 0.000254, 0.001255, 0.000099, 0.000108
94254, 611526359.521000, 0.003416, 0.000404, 0.001267, 0.000100, 0.000108
94258, 611526378.574900, 0.003235, 0.000153, 0.001440, 0.000102, 0.000107
94262, 611526397.181900, 0.003396, 0.000321, 0.001202, 0.000103, 0.000107
94266, 611526417.364900, 0.003412, 0.000360, 0.001270, 0.000098, 0.000105
94270, 611526440.128500, 0.003373, 0.000176, 0.001253, 0.000102, 0.000122
94274, 611526459.447400, 0.003231, 0.000160, 0.001241, 0.000107, 0.000122
94278, 611526478.699900, 0.003227, 0.000151, 0.001406, 0.000098, 0.000122
94282, 611526497.862300, 0.003294, 0.000162, 0.001299, 0.000108, 0.000123
94286, 611526516.986800, 0.003387, 0.000155, 0.001433, 0.000103, 0.000122
94290, 611526538.960900, 0.003228, 0.000179, 0.001336, 0.000121, 0.000123
94294, 611526558.382200, 0.003257, 0.000188, 0.001623, 0.000292, 0.000123
94298, 611526577.271400, 0.003227, 0.000169, 0.001350, 0.000119, 0.000123
94302, 611526599.631500, 0.003204, 0.000176, 0.001372, 0.000119, 0.000124
94306, 611526618.420300, 0.003268, 0.000213, 0.001968, 0.000120, 0.000122
94310, 611526637.900600, 0.003242, 0.000223, 0.001823, 0.000137, 0.000119
94314, 611526657.298700, 0.003231, 0.000173, 0.001427, 0.000119, 0.000121
94318, 611526678.927500, 0.003231, 0.000179, 0.001734, 0.000120, 0.000099
94322, 611526697.713700, 0.003228, 0.000192, 0.001437, 0.000124, 0.000098
94326, 611526719.559700, 0.003235, 0.000173, 0.001417, 0.000121, 0.000129
94330, 611526738.381500, 0.003258, 0.000212, 0.001552, 0.000120, 0.000128
94334, 611526758.674400, 0.003271, 0.000193, 0.001487, 0.000135, 0.000130
94338, 611526777.431000, 0.003212, 0.000206, 0.001785, 0.000131, 0.000132
94342, 611526799.257400, 0.003211, 0.000192, 0.001707, 0.000119, 0.000132
94346, 611526817.845100, 0.003226, 0.000179, 0.001340, 0.000118, 0.000134
94350, 611526839.635200, 0.003205, 0.000162, 0.001513, 0.000116, 0.000117
94354, 611526858.120500, 0.003219, 0.000181, 0.001384, 0.000113, 0.000119
94358, 611526877.184800, 0.003219, 0.000298, 0.001338, 0.000127, 0.000121
94362, 611526898.433600, 0.003230, 0.000176, 0.001366, 0.000114, 0.000120
94366, 611526916.821300, 0.003233, 0.000160, 0.001475, 0.000120, 0.000123
94370, 611526938.845500, 0.003227, 0.000194, 0.001388, 0.000126, 0.000143
94375, 611526960.052000, 0.003253, 0.000177, 0.001322, 0.000117, 0.000145
94378, 611526978.464700, 0.003236, 0.000226, 0.001278, 0.000118, 0.000147
94382, 611526996.959900, 0.003259, 0.000166, 0.001341, 0.000110, 0.000147
94386, 611527018.774900, 0.003215, 0.000190, 0.001377, 0.000128, 0.000171
94391, 611527040.168500, 0.003381, 0.000459, 0.001267, 0.000105, 0.000172
94395, 611527059.683400, 0.003232, 0.000179, 0.001329, 0.000116, 0.000172
94398, 611527078.598500, 0.003220, 0.000257, 0.001356, 0.000117, 0.000172
94402, 611527097.837200, 0.003234, 0.000171, 0.001296, 0.000123, 0.000176
94406, 611527116.958300, 0.003226, 0.000180, 0.001412, 0.000118, 0.000181
94410, 611527138.882100, 0.003227, 0.000192, 0.001381, 0.000117, 0.000181
94414, 611527157.775800, 0.003302, 0.000165, 0.001378, 0.000116, 0.000179
94419, 611527179.834300, 0.003219, 0.000159, 0.001457, 0.000115, 0.000187
94422, 611527198.583300, 0.003212, 0.000175, 0.001368, 0.000119, 0.000188
94426, 611527217.674500, 0.003222, 0.000181, 0.001393, 0.000118, 0.000190
94430, 611527236.895400, 0.003221, 0.000167, 0.001339, 0.000114, 0.000191
94434, 611527259.344500, 0.003223, 0.000193, 0.001405, 0.000182, 0.000189
94438, 611527277.773300, 0.003234, 0.000321, 0.001420, 0.000120, 0.000186
94442, 611527297.259400, 0.003228, 0.000183, 0.001353, 0.000119, 0.000215
94446, 611527319.452200, 0.003320, 0.000390, 0.001234, 0.000096, 0.000213
94450, 611527338.264000, 0.003278, 0.000190, 0.001364, 0.000119, 0.000192
94454, 611527357.065100, 0.003282, 0.000168, 0.001356, 0.000123, 0.000190
94458, 611527378.781800, 0.003213, 0.000306, 0.001325, 0.000119, 0.000210
94462, 611527397.544400, 0.003232, 0.000167, 0.001346, 0.000118, 0.000209
94466, 611527417.705200, 0.003241, 0.000195, 0.001496, 0.000122, 0.000226
94470, 611527437.905500, 0.003229, 0.000173, 0.001257, 0.000108, 0.000225
94474, 611527457.020600, 0.003228, 0.000168, 0.001281, 0.000112, 0.000223
94478, 611527478.905200, 0.003227, 0.000208, 0.001327, 0.000116, 0.000224
94482, 611527497.987100, 0.003230, 0.000180, 0.001419, 0.000114, 0.000223
94486, 611527518.571100, 0.003289, 0.000157, 0.001307, 0.000117, 0.000187
94490, 611527536.993900, 0.003231, 0.000163, 0.001353, 0.000110, 0.000185
94494, 611527559.155000, 0.003412, 0.000340, 0.001287, 0.000109, 0.000219
94498, 611527578.019400, 0.003244, 0.000347, 0.001420, 0.000124, 0.000210
94502, 611527597.015600, 0.003221, 0.000169, 0.001314, 0.000116, 0.000211
94506, 611527618.897700, 0.003219, 0.000170, 0.001659, 0.000117, 0.000209
94511, 611527639.984500, 0.003236, 0.000322, 0.001535, 0.000127, 0.000208
94514, 611527658.860500, 0.003218, 0.000164, 0.001329, 0.000120, 0.000208
94518, 611527677.406800, 0.003227, 0.000174, 0.001550, 0.000114, 0.000207
94522, 611527699.220100, 0.003221, 0.000165, 0.001326, 0.000123, 0.000181
94526, 611527717.065500, 0.003226, 0.000163, 0.001341, 0.000114, 0.000183
94530, 611527737.156500, 0.003240, 0.000190, 0.001343, 0.000123, 0.000209
94534, 611527758.868700, 0.003201, 0.000159, 0.001309, 0.000145, 0.000209
94538, 611527777.518700, 0.003230, 0.000185, 0.001358, 0.000120, 0.000188
94543, 611527799.953600, 0.003220, 0.000174, 0.001451, 0.000121, 0.000187
94546, 611527819.115700, 0.003229, 0.000191, 0.001404, 0.000117, 0.000150
94550, 611527838.651200, 0.003227, 0.000161, 0.001308, 0.000110, 0.000150
94554, 611527858.323300, 0.003221, 0.000174, 0.001321, 0.000118, 0.000152
94558, 611527877.518500, 0.003206, 0.000280, 0.001339, 0.000116, 0.000151
94562, 611527899.602500, 0.003218, 0.000212, 0.001466, 0.000119, 0.000151
94566, 611527918.100000, 0.003226, 0.000184, 0.001388, 0.000125, 0.000153
94570, 611527937.691000, 0.003219, 0.000160, 0.001261, 0.000123, 0.000154
94574, 611527956.888600, 0.003230, 0.000160, 0.001292, 0.000116, 0.000122
94578, 611527979.774500, 0.003227, 0.000324, 0.001397, 0.000123, 0.000123
94582, 611527998.656200, 0.003384, 0.000355, 0.001228, 0.000116, 0.000121
94586, 611528017.627000, 0.003192, 0.000158, 0.001301, 0.000107, 0.000120
94591, 611528040.378700, 0.003228, 0.000182, 0.001610, 0.000122, 0.000120
94594, 611528059.281800, 0.003230, 0.000200, 0.001359, 0.000119, 0.000123
94598, 611528078.204500, 0.003220, 0.000195, 0.001373, 0.000117, 0.000125
94602, 611528097.079100, 0.003269, 0.000174, 0.001270, 0.000122, 0.000123
94606, 611528119.054300, 0.003213, 0.000160, 0.001322, 0.000107, 0.000121
94610, 611528138.184300, 0.003234, 0.000196, 0.001355, 0.000129, 0.000095
94614, 611528157.114000, 0.003274, 0.000183, 0.001342, 0.000107, 0.000096
94618, 611528178.947300, 0.003243, 0.000288, 0.001349, 0.000118, 0.000117
94622, 611528197.304700, 0.003227, 0.000183, 0.001358, 0.000116, 0.000117
94626, 611528219.127100, 0.003213, 0.000188, 0.001373, 0.000120, 0.000134
94630, 611528238.789800, 0.003224, 0.000169, 0.001296, 0.000109, 0.000134
94634, 611528257.645000, 0.003223, 0.000142, 0.001193, 0.000103, 0.000132
94638, 611528279.119600, 0.003235, 0.000173, 0.001357, 0.000120, 0.000131
94642, 611528297.718400, 0.003228, 0.000174, 0.001321, 0.000119, 0.000129
94647, 611528319.680400, 0.003229, 0.000167, 0.001188, 0.000110, 0.000127
94650, 611528338.731300, 0.003237, 0.000148, 0.001278, 0.000109, 0.000127
94654, 611528357.530700, 0.003237, 0.000138, 0.001202, 0.000099, 0.000127
94658, 611528379.446100, 0.003234, 0.000187, 0.001512, 0.000120, 0.000126
94662, 611528398.060600, 0.003228, 0.000165, 0.001304, 0.000142, 0.000126
94666, 611528419.899500, 0.003231, 0.000160, 0.001243, 0.000111, 0.000125
94670, 611528439.211000, 0.003208, 0.000189, 0.001427, 0.000114, 0.000124
94674, 611528457.571800, 0.003232, 0.000175, 0.001263, 0.000107, 0.000122
94678, 611528476.865200, 0.003225, 0.000152, 0.001278, 0.000112, 0.000120
94682, 611528498.558700, 0.003238, 0.000171, 0.001255, 0.000109, 0.000120
94686, 611528517.579400, 0.003238, 0.000161, 0.001384, 0.000121, 0.000120
94690, 611528539.214000, 0.003232, 0.000168, 0.001288, 0.000114, 0.000121
94694, 611528558.316200, 0.003227, 0.000178, 0.001250, 0.000120, 0.000121
94698, 611528577.327200, 0.003219, 0.000301, 0.001247, 0.000120, 0.000100
94703, 611528599.683000, 0.003231, 0.000154, 0.001336, 0.000114, 0.000100
94706, 611528618.484200, 0.003231, 0.000165, 0.001361, 0.000117, 0.000079
94710, 611528637.108300, 0.003222, 0.000156, 0.001303, 0.000115, 0.000080
94714, 611528658.272600, 0.003261, 0.000170, 0.001234, 0.000114, 0.000084
94718, 611528677.421300, 0.003233, 0.000162, 0.001299, 0.000118, 0.000085
94722, 611528696.897700, 0.003250, 0.000172, 0.001288, 0.000119, 0.000084
94726, 611528718.958100, 0.003271, 0.000157, 0.001264, 0.000112, 0.000084
94730, 611528737.775500, 0.003280, 0.000163, 0.001200, 0.000109, 0.000083
94734, 611528759.224900, 0.003275, 0.000171, 0.001267, 0.000108, 0.000080
94738, 611528778.095600, 0.003252, 0.000200, 0.001439, 0.000161, 0.000081
94742, 611528797.031900, 0.003232, 0.000184, 0.001305, 0.000116, 0.000081
94746, 611528818.577900, 0.003253, 0.000154, 0.001316, 0.000105, 0.000082
94750, 611528838.221000, 0.003228, 0.000146, 0.001234, 0.000103, 0.000082
94754, 611528857.478200, 0.003224, 0.000170, 0.001414, 0.000115, 0.000082
94758, 611528879.394200, 0.003231, 0.000287, 0.001477, 0.000118, 0.000092
94762, 611528898.373700, 0.003250, 0.000170, 0.001312, 0.000118, 0.000092
94766, 611528917.344100, 0.003274, 0.000148, 0.001273, 0.000104, 0.000092
94770, 611528939.369200, 0.003225, 0.000179, 0.001338, 0.000117, 0.000090
94774, 611528958.370900, 0.003210, 0.000165, 0.001473, 0.000127, 0.000092
94778, 611528977.271000, 0.003251, 0.000278, 0.001249, 0.000107, 0.000092
94782, 611528998.692500, 0.003232, 0.000186, 0.001336, 0.000121, 0.000094
94786, 611529017.556800, 0.003237, 0.000169, 0.001279, 0.000116, 0.000094
94790, 611529039.220900, 0.003283, 0.000168, 0.001245, 0.000121, 0.000095
94794, 611529058.399400, 0.003259, 0.000159, 0.001206, 0.000106, 0.000091
94798, 611529077.382400, 0.003225, 0.000183, 0.001361, 0.000131, 0.000091
94802, 611529099.298200, 0.003227, 0.000194, 0.001392, 0.000117, 0.000091
94806, 611529117.771700, 0.003226, 0.000160, 0.001296, 0.000108, 0.000092
94810, 611529139.625600, 0.003277, 0.000157, 0.001226, 0.000104, 0.000092
94814, 611529158.269300, 0.003273, 0.000164, 0.001262, 0.000110, 0.000092
94818, 611529177.582600, 0.003290, 0.000326, 0.001515, 0.000123, 0.000092
94822, 611529199.683000, 0.003218, 0.000164, 0.001420, 0.000117, 0.000091
94826, 611529218.771600, 0.003277, 0.000149, 0.001277, 0.000107, 0.000091
94830, 611529238.171900, 0.003286, 0.000147, 0.001285, 0.000107, 0.000091
94834, 611529256.987300, 0.003230, 0.000173, 0.001314, 0.000116, 0.000088
94838, 611529278.978300, 0.003229, 0.000294, 0.001301, 0.000111, 0.000079
94842, 611529298.102700, 0.003401, 0.000165, 0.001284, 0.000119, 0.000080
94846, 611529316.926000, 0.003220, 0.000184, 0.001339, 0.000117, 0.000081
94850, 611529337.719500, 0.003220, 0.000179, 0.001413, 0.000119, 0.000081
94854, 611529359.221900, 0.003247, 0.000180, 0.001253, 0.000112, 0.000080
94858, 611529377.642200, 0.003229, 0.000284, 0.001686, 0.000122, 0.000081
94862, 611529399.546100, 0.003276, 0.000149, 0.001295, 0.000136, 0.000079
94866, 611529417.842600, 0.003224, 0.000206, 0.001449, 0.000178, 0.000081
94870, 611529437.214200, 0.003226, 0.000170, 0.001327, 0.000120, 0.000079
94874, 611529459.436000, 0.003277, 0.000172, 0.001237, 0.000103, 0.000079
94878, 611529478.602200, 0.003215, 0.000171, 0.001423, 0.000108, 0.000078
94882, 611529497.266200, 0.003281, 0.000204, 0.001485, 0.000128, 0.000079
94886, 611529518.923600, 0.003276, 0.000163, 0.001307, 0.000110, 0.000078
94890, 611529538.286400, 0.003261, 0.000162, 0.001321, 0.000109, 0.000080
94894, 611529557.147800, 0.003205, 0.000149, 0.001238, 0.000108, 0.000081
94898, 611529578.932500, 0.003230, 0.000185, 0.001369, 0.000144, 0.000081
94902, 611529597.503900, 0.003206, 0.000173, 0.001352, 0.000118, 0.000083
94906, 611529618.340800, 0.003233, 0.000189, 0.001446, 0.000175, 0.000111
94910, 611529637.074100, 0.003230, 0.000171, 0.001310, 0.000107, 0.000115
94914, 611529659.484400, 0.003220, 0.000172, 0.001280, 0.000112, 0.000115
94918, 611529676.951800, 0.003227, 0.000159, 0.001325, 0.000111, 0.000115
94922, 611529699.244000, 0.003254, 0.000148, 0.001205, 0.000110, 0.000119
94926, 611529718.470200, 0.003282, 0.000159, 0.001245, 0.000104, 0.000117
94930, 611529737.148400, 0.003230, 0.000166, 0.001388, 0.000197, 0.000118
94934, 611529758.457600, 0.003226, 0.000181, 0.001244, 0.000114, 0.000137
94938, 611529777.857400, 0.003225, 0.000200, 0.001459, 0.000128, 0.000137
94942, 611529797.332100, 0.003242, 0.000171, 0.001317, 0.000110, 0.000167
94946, 611529817.149600, 0.003235, 0.000176, 0.001416, 0.000120, 0.000167
94950, 611529838.784400, 0.003244, 0.000165, 0.001494, 0.000124, 0.000167
94954, 611529857.148300, 0.003234, 0.000186, 0.001329, 0.000112, 0.000168
94958, 611529879.026500, 0.003246, 0.000364, 0.001270, 0.000121, 0.000168
94962, 611529898.127700, 0.003246, 0.000175, 0.001320, 0.000118, 0.000169
94966, 611529919.345100, 0.003410, 0.000389, 0.001295, 0.000102, 0.000169
94970, 611529938.461000, 0.003404, 0.000306, 0.001221, 0.000099, 0.000167
94974, 611529957.280700, 0.003427, 0.000338, 0.001221, 0.000100, 0.000166
94978, 611529979.509100, 0.003241, 0.000196, 0.001398, 0.000124, 0.000168
94982, 611529998.391600, 0.003277, 0.000181, 0.001219, 0.000117, 0.000166
94986, 611530017.393800, 0.003231, 0.000214, 0.001368, 0.000123, 0.000138
94990, 611530039.462700, 0.003221, 0.000159, 0.001316, 0.000116, 0.000136
94994, 611530058.506300, 0.003227, 0.000172, 0.001285, 0.000116, 0.000136
94998, 611530077.232400, 0.003235, 0.000315, 0.001322, 0.000114, 0.000141
95002, 611530099.006700, 0.003223, 0.000170, 0.001283, 0.000119, 0.000135
95006, 611530118.086600, 0.003210, 0.000157, 0.001298, 0.000117, 0.000136
95010, 611530137.363500, 0.003235, 0.000154, 0.001235, 0.000118, 0.000138
95014, 611530157.414100, 0.003245, 0.000151, 0.001331, 0.000110, 0.000118
95018, 611530179.697500, 0.003238, 0.000163, 0.001277, 0.000113, 0.000134
95022, 611530197.699500, 0.003230, 0.000162, 0.001289, 0.000109, 0.000104
95026, 611530217.205400, 0.003229, 0.000169, 0.001350, 0.000118, 0.000123
95030, 611530239.277200, 0.003220, 0.000169, 0.001267, 0.000121, 0.000123
95034, 611530258.222500, 0.003266, 0.000167, 0.001293, 0.000114, 0.000124
95038, 611530278.172000, 0.003233, 0.000153, 0.001340, 0.000111, 0.000125
95042, 611530296.975200, 0.003223, 0.000217, 0.001531, 0.000129, 0.000125
95046, 611530319.113500, 0.003221, 0.000197, 0.001340, 0.000121, 0.000125
95050, 611530338.006400, 0.003215, 0.000170, 0.001299, 0.000120, 0.000126
95054, 611530357.502600, 0.003221, 0.000158, 0.001222, 0.000104, 0.000126
95058, 611530379.394700, 0.003229, 0.000309, 0.001282, 0.000125, 0.000124
95062, 611530397.281900, 0.003216, 0.000185, 0.001356, 0.000119, 0.000124
95066, 611530419.131100, 0.003365, 0.000253, 0.001206, 0.000099, 0.000124
95070, 611530437.211600, 0.003360, 0.000216, 0.001201, 0.000098, 0.000124
95074, 611530459.166300, 0.003273, 0.000151, 0.001254, 0.000106, 0.000127
95078, 611530478.379600, 0.003260, 0.000152, 0.001225, 0.000109, 0.000123
95082, 611530497.570300, 0.003385, 0.000276, 0.001159, 0.000099, 0.000123
95086, 611530518.094200, 0.003400, 0.000358, 0.001182, 0.000091, 0.000124
95090, 611530537.324300, 0.003233, 0.000171, 0.001265, 0.000112, 0.000124
95094, 611530556.901400, 0.003368, 0.000266, 0.001184, 0.000104, 0.000144
95098, 611530578.402500, 0.003378, 0.000326, 0.001234, 0.000095, 0.000126
95102, 611530599.355200, 0.003215, 0.000158, 0.001260, 0.000101, 0.000128
95106, 611530618.806600, 0.003257, 0.000162, 0.001280, 0.000116, 0.000108
95110, 611530637.962100, 0.003215, 0.000163, 0.001255, 0.000119, 0.000109
95114, 611530658.181900, 0.003395, 0.000330, 0.001162, 0.000102, 0.000108
95118, 611530679.038600, 0.003257, 0.000154, 0.001257, 0.000102, 0.000107
95122, 611530697.960700, 0.003231, 0.000162, 0.001565, 0.000111, 0.000105
95126, 611530717.196000, 0.003406, 0.000357, 0.001175, 0.000103, 0.000105
95130, 611530737.047200, 0.003373, 0.000326, 0.001202, 0.000099, 0.000136
95134, 611530759.273400, 0.003408, 0.000404, 0.001268, 0.000096, 0.000156
95138, 611530777.930200, 0.003241, 0.000151, 0.001195, 0.000104, 0.000158
95143, 611530799.771300, 0.003376, 0.000388, 0.001166, 0.000098, 0.000157
95146, 611530818.265800, 0.003234, 0.000148, 0.001274, 0.000102, 0.000158
95150, 611530837.461400, 0.003271, 0.000147, 0.001266, 0.000109, 0.000158
95154, 611530859.478900, 0.003234, 0.000201, 0.001682, 0.000138, 0.000155
95158, 611530879.198300, 0.003212, 0.000194, 0.001465, 0.000122, 0.000157
95162, 611530897.897400, 0.003263, 0.000185, 0.001373, 0.000121, 0.000157
95166, 611530918.277700, 0.003235, 0.000170, 0.001254, 0.000123, 0.000159
95170, 611530937.179100, 0.003232, 0.000146, 0.001216, 0.000103, 0.000157
95174, 611530958.990700, 0.003369, 0.000259, 0.001154, 0.000100, 0.000136
95178, 611530977.568700, 0.003370, 0.000227, 0.001302, 0.000105, 0.000138
95182, 611530997.686800, 0.003448, 0.000293, 0.001281, 0.000099, 0.000136
95186, 611531019.264200, 0.003217, 0.000167, 0.001265, 0.000118, 0.000137
95190, 611531038.150500, 0.003363, 0.000244, 0.001197, 0.000110, 0.000136
95194, 611531059.399200, 0.003235, 0.000149, 0.001194, 0.000096, 0.000137
95198, 611531078.078600, 0.003380, 0.000210, 0.001300, 0.000106, 0.000137
95202, 611531099.467400, 0.003237, 0.000174, 0.001279, 0.000104, 0.000137
95206, 611531117.642400, 0.003363, 0.000261, 0.001136, 0.000100, 0.000137
95210, 611531139.278400, 0.003357, 0.000304, 0.001157, 0.000099, 0.000106
95214, 611531157.501300, 0.003330, 0.000308, 0.001160, 0.000101, 0.000086
95218, 611531178.921800, 0.003238, 0.000154, 0.001339, 0.000110, 0.000085
95222, 611531198.052600, 0.003402, 0.000351, 0.001192, 0.000101, 0.000085
95226, 611531219.081000, 0.003406, 0.000230, 0.001195, 0.000100, 0.000087
95230, 611531238.358200, 0.003400, 0.000323, 0.001112, 0.000094, 0.000085
95234, 611531256.877300, 0.003232, 0.000164, 0.001267, 0.000106, 0.000085
95238, 611531278.907100, 0.003393, 0.000359, 0.001206, 0.000102, 0.000082
95242, 611531297.751100, 0.003381, 0.000383, 0.001177, 0.000099, 0.000082
95246, 611531319.060800, 0.003410, 0.000383, 0.001296, 0.000100, 0.000079
95250, 611531338.454400, 0.003229, 0.000149, 0.001177, 0.000105, 0.000081
95254, 611531357.265500, 0.003345, 0.000288, 0.001151, 0.000098, 0.000082
95258, 611531378.911000, 0.003209, 0.000153, 0.001215, 0.000105, 0.000080
95262, 611531397.176000, 0.003414, 0.000212, 0.001155, 0.000101, 0.000080
95266, 611531419.195500, 0.003229, 0.000152, 0.001277, 0.000106, 0.000080
95270, 611531438.100500, 0.003305, 0.000358, 0.001259, 0.000102, 0.000080
95275, 611531459.824400, 0.003413, 0.000368, 0.001249, 0.000138, 0.000081
95278, 611531477.935000, 0.003370, 0.000399, 0.001245, 0.000108, 0.000082
95282, 611531498.948500, 0.003236, 0.000171, 0.001279, 0.000118, 0.000084
95286, 611531517.066900, 0.003355, 0.000209, 0.001178, 0.000092, 0.000084
95290, 611531538.339900, 0.003417, 0.000159, 0.001191, 0.000109, 0.000083
95294, 611531556.803000, 0.003377, 0.000369, 0.001268, 0.000095, 0.000085
95298, 611531579.554200, 0.003243, 0.000152, 0.001273, 0.000100, 0.000086
95302, 611531598.363900, 0.003218, 0.000193, 0.001908, 0.000136, 0.000088
95307, 611531619.725700, 0.003296, 0.000155, 0.001205, 0.000105, 0.000086
95310, 611531638.349800, 0.003408, 0.000279, 0.001243, 0.000104, 0.000087
95315, 611531659.688800, 0.003361, 0.000171, 0.001308, 0.000105, 0.000087
95318, 611531678.393800, 0.003379, 0.000268, 0.001280, 0.000105, 0.000089
95322, 611531696.876500, 0.003409, 0.000386, 0.001327, 0.000111, 0.000089
95326, 611531718.077700, 0.003365, 0.000168, 0.001187, 0.000099, 0.000089
95330, 611531739.341400, 0.003229, 0.000160, 0.001238, 0.000105, 0.000089
95334, 611531757.842000, 0.003352, 0.000310, 0.001256, 0.000100, 0.000089
95338, 611531779.099800, 0.003379, 0.000225, 0.001282, 0.000109, 0.000090
95342, 611531797.608000, 0.003450, 0.000417, 0.001381, 0.000111, 0.000090
95346, 611531816.868700, 0.003247, 0.000166, 0.001198, 0.000115, 0.000089
95350, 611531837.240000, 0.003260, 0.000156, 0.001331, 0.000100, 0.000089
95354, 611531859.619400, 0.003374, 0.000306, 0.001237, 0.000107, 0.000088
95358, 611531877.887800, 0.003239, 0.000159, 0.001226, 0.000107, 0.000088
95362, 611531899.008000, 0.003233, 0.000165, 0.001248, 0.000103, 0.000088
95366, 611531918.917000, 0.003364, 0.000368, 0.001155, 0.000097, 0.000089
95370, 611531937.177200, 0.003749, 0.000136, 0.001161, 0.000101, 0.000089
95374, 611531959.102800, 0.003409, 0.000227, 0.001670, 0.000114, 0.000090
95378, 611531977.435200, 0.003233, 0.000165, 0.001282, 0.000114, 0.000089
95382, 611531999.197300, 0.003369, 0.000247, 0.001326, 0.000101, 0.000087
95386, 611532017.891300, 0.003368, 0.000236, 0.001160, 0.000099, 0.000087
95390, 611532039.608900, 0.003357, 0.000391, 0.001234, 0.000118, 0.000086
95394, 611532058.824100, 0.003236, 0.000144, 0.001247, 0.000099, 0.000085
95398, 611532077.368800, 0.003232, 0.000167, 0.001343, 0.000118, 0.000084
95402, 611532099.030500, 0.003410, 0.000216, 0.001216, 0.000099, 0.000083
95406, 611532118.070300, 0.003362, 0.000356, 0.001210, 0.000097, 0.000083
95410, 611532139.369600, 0.003360, 0.000315, 0.001173, 0.000105, 0.000081
95414, 611532158.244700, 0.003379, 0.000366, 0.001293, 0.000100, 0.000082
95418, 611532179.589700, 0.003261, 0.000157, 0.001203, 0.000103, 0.000083
95422, 611532198.099100, 0.003371, 0.000266, 0.001214, 0.000101, 0.000083
95426, 611532219.413600, 0.003253, 0.000150, 0.001235, 0.000102, 0.000084
95430, 611532237.795200, 0.003397, 0.000364, 0.001263, 0.000099, 0.000084
95434, 611532259.468200, 0.003408, 0.000379, 0.001167, 0.000098, 0.000084
95438, 611532277.731600, 0.003249, 0.000144, 0.001191, 0.000104, 0.000082
95442, 611532297.386000, 0.003227, 0.000147, 0.001252, 0.000112, 0.000082
95446, 611532319.149300, 0.003378, 0.000339, 0.001164, 0.000100, 0.000082
95450, 611532337.914300, 0.003335, 0.000331, 0.001157, 0.000102, 0.000081
95454, 611532359.558600, 0.003412, 0.000354, 0.001262, 0.000104, 0.000080
95458, 611532377.955200, 0.003227, 0.000147, 0.001251, 0.000117, 0.000080
95462, 611532397.081200, 0.003399, 0.000212, 0.001176, 0.000102, 0.000080
95466, 611532417.751300, 0.003406, 0.000352, 0.001143, 0.000102, 0.000082
95471, 611532439.609400, 0.003183, 0.000159, 0.001225, 0.000107, 0.000082
95474, 611532458.365400, 0.003235, 0.000155, 0.001191, 0.000096, 0.000083
95478, 611532476.946100, 0.003234, 0.000151, 0.001161, 0.000113, 0.000084
95482, 611532497.342000, 0.003413, 0.000189, 0.001173, 0.000100, 0.000084
95486, 611532519.071900, 0.003378, 0.000356, 0.001205, 0.000098, 0.000084
95490, 611532537.553900, 0.003368, 0.000306, 0.001277, 0.000103, 0.000086
95494, 611532558.962800, 0.003372, 0.000389, 0.001252, 0.000095, 0.000085
95498, 611532577.214900, 0.003228, 0.000159, 0.001252, 0.000108, 0.000083
95502, 611532598.659000, 0.003246, 0.000155, 0.001362, 0.000106, 0.000083
95506, 611532617.357300, 0.003232, 0.000148, 0.001240, 0.000106, 0.000082
95510, 611532638.945600, 0.003210, 0.000217, 0.001668, 0.000129, 0.000082
95514, 611532657.114400, 0.003598, 0.000228, 0.001827, 0.000117, 0.000081
95518, 611532678.489100, 0.003313, 0.000316, 0.001242, 0.000108, 0.000082
95522, 611532697.593700, 0.003360, 0.000386, 0.001226, 0.000094, 0.000081
95526, 611532719.080100, 0.003322, 0.000199, 0.001155, 0.000104, 0.000081
95530, 611532737.882200, 0.003372, 0.000238, 0.001174, 0.000110, 0.000081
95535, 611532759.756600, 0.003373, 0.000164, 0.001165, 0.000127, 0.000080
95538, 611532777.950000, 0.003234, 0.000170, 0.001551, 0.000121, 0.000079
95543, 611532799.831900, 0.003376, 0.000397, 0.001295, 0.000103, 0.000080
95546, 611532818.641000, 0.003427, 0.000335, 0.001226, 0.000104, 0.000082
95550, 611532837.004400, 0.003345, 0.000358, 0.001221, 0.000101, 0.000084
95554, 611532858.425200, 0.003390, 0.000374, 0.001206, 0.000097, 0.000084
95558, 611532877.510900, 0.003238, 0.000143, 0.001173, 0.000097, 0.000085
95562, 611532898.972400, 0.003381, 0.000372, 0.001240, 0.000103, 0.000087
95566, 611532917.927600, 0.003320, 0.000323, 0.001231, 0.000093, 0.000088
95570, 611532939.693900, 0.003410, 0.000270, 0.001312, 0.000106, 0.000086
95574, 611532957.895000, 0.003415, 0.000373, 0.001199, 0.000105, 0.000087
95578, 611532979.085700, 0.003481, 0.000374, 0.001426, 0.000099, 0.000088
95583, 611533001.716300, 0.003336, 0.000339, 0.001264, 0.000103, 0.000088
95586, 611533017.203400, 0.003382, 0.000370, 0.001226, 0.000088, 0.000089
95590, 611533038.233600, 0.003248, 0.000141, 0.001266, 0.000097, 0.000089
95594, 611533056.803100, 0.003366, 0.000399, 0.001253, 0.000117, 0.000089
95598, 611533078.053900, 0.003312, 0.000344, 0.001186, 0.000112, 0.000090
95603, 611533099.678100, 0.003352, 0.000252, 0.001275, 0.000102, 0.000090
95606, 611533118.376900, 0.003284, 0.000179, 0.001319, 0.000114, 0.000089
95611, 611533139.955700, 0.003320, 0.000393, 0.001167, 0.000112, 0.000091
95614, 611533158.339700, 0.003402, 0.000327, 0.001221, 0.000104, 0.000092
95618, 611533177.244200, 0.003257, 0.000145, 0.001290, 0.000106, 0.000091
95622, 611533198.621700, 0.003386, 0.000293, 0.001187, 0.000107, 0.000091
95626, 611533216.917300, 0.003432, 0.000343, 0.001266, 0.000105, 0.000087
95630, 611533238.510200, 0.003431, 0.000165, 0.001288, 0.000102, 0.000086
95634, 611533256.974700, 0.003432, 0.000296, 0.001330, 0.000094, 0.000085
95638, 611533278.591900, 0.003228, 0.000154, 0.001273, 0.000104, 0.000085
95642, 611533297.769600, 0.003384, 0.000394, 0.001280, 0.000107, 0.000084
95647, 611533319.707700, 0.003261, 0.000159, 0.001307, 0.000106, 0.000083
95650, 611533338.157700, 0.003414, 0.000384, 0.001248, 0.000099, 0.000085
95654, 611533356.890500, 0.003365, 0.000338, 0.001230, 0.000106, 0.000083
95658, 611533379.715000, 0.003368, 0.000186, 0.001248, 0.000107, 0.000083
95662, 611533399.209700, 0.003209, 0.000294, 0.001220, 0.000101, 0.000083
95666, 611533418.229500, 0.003369, 0.000303, 0.001192, 0.000097, 0.000082
95670, 611533437.194000, 0.003351, 0.000327, 0.001244, 0.000107, 0.000082
95675, 611533459.966500, 0.003264, 0.000172, 0.001307, 0.000113, 0.000083
95678, 611533479.314400, 0.003320, 0.000260, 0.001191, 0.000112, 0.000083
95682, 611533498.861100, 0.003268, 0.000151, 0.001145, 0.000097, 0.000084
95686, 611533518.198100, 0.003416, 0.000336, 0.001219, 0.000103, 0.000083
95690, 611533537.634800, 0.003351, 0.000375, 0.001139, 0.000105, 0.000082
95694, 611533556.954200, 0.003298, 0.000330, 0.001148, 0.000102, 0.000081
95698, 611533579.279900, 0.003408, 0.000306, 0.001281, 0.000102, 0.000080
95702, 611533598.374200, 0.003407, 0.000250, 0.001374, 0.000134, 0.000080
95706, 611533617.548100, 0.003410, 0.000381, 0.001210, 0.000100, 0.000080
95710, 611533636.869200, 0.003351, 0.000372, 0.001279, 0.000098, 0.000080
95714, 611533659.328000, 0.003228, 0.000157, 0.001474, 0.000123, 0.000081
95718, 611533678.538800, 0.003267, 0.000166, 0.001389, 0.000113, 0.000079
95722, 611533698.570100, 0.003404, 0.000395, 0.001274, 0.000123, 0.000079
95726, 611533717.556100, 0.003329, 0.000294, 0.001192, 0.000093, 0.000079
95730, 611533737.840500, 0.003275, 0.000153, 0.001234, 0.000110, 0.000077
95734, 611533757.627000, 0.003262, 0.000202, 0.001479, 0.000117, 0.000077
95738, 611533777.426300, 0.003229, 0.000158, 0.001302, 0.000119, 0.000075
95743, 611533799.661500, 0.003373, 0.000347, 0.001155, 0.000098, 0.000075
95746, 611533818.754300, 0.003395, 0.000273, 0.001147, 0.000102, 0.000077
95750, 611533838.134800, 0.003290, 0.000144, 0.001237, 0.000107, 0.000076
95754, 611533857.522000, 0.003402, 0.000370, 0.001258, 0.000105, 0.000075
95758, 611533879.175100, 0.003349, 0.000357, 0.001286, 0.000110, 0.000073
95762, 611533897.690800, 0.003406, 0.000317, 0.001154, 0.000101, 0.000074
95766, 611533919.725900, 0.003423, 0.000216, 0.001203, 0.000104, 0.000074
95770, 611533938.305300, 0.003417, 0.000350, 0.001255, 0.000103, 0.000074
95774, 611533957.475800, 0.003407, 0.000300, 0.001194, 0.000096, 0.000075
95778, 611533979.163400, 0.003397, 0.000260, 0.001258, 0.000100, 0.000075
95782, 611533998.346800, 0.003378, 0.000389, 0.001194, 0.000104, 0.000075
95786, 611534016.801000, 0.003380, 0.000395, 0.001449, 0.000113, 0.000075
95790, 611534038.300500, 0.003417, 0.000380, 0.001293, 0.000100, 0.000075
95794, 611534057.463300, 0.003427, 0.000422, 0.001185, 0.000100, 0.000074
95798, 611534079.246300, 0.003230, 0.000194, 0.001306, 0.000127, 0.000075
95802, 611534097.515200, 0.003399, 0.000251, 0.001187, 0.000101, 0.000075
95807, 611534119.358600, 0.003238, 0.000141, 0.001163, 0.000096, 0.000075
95810, 611534137.879000, 0.003413, 0.000371, 0.001140, 0.000090, 0.000076
95814, 611534159.404700, 0.003353, 0.000339, 0.001233, 0.000106, 0.000076
95818, 611534178.160900, 0.003376, 0.000196, 0.001223, 0.000110, 0.000077
95823, 611534199.791000, 0.003365, 0.000206, 0.001177, 0.000097, 0.000077
95826, 611534218.454800, 0.003403, 0.000343, 0.001160, 0.000099, 0.000077
95830, 611534237.154100, 0.003415, 0.000401, 0.001208, 0.000106, 0.000080
95834, 611534258.524100, 0.003271, 0.000153, 0.001297, 0.000100, 0.000081
95838, 611534277.077200, 0.003221, 0.000149, 0.001190, 0.000106, 0.000081
95842, 611534299.353200, 0.003358, 0.000214, 0.001194, 0.000100, 0.000079
95846, 611534318.426300, 0.003415, 0.000166, 0.001166, 0.000108, 0.000079
95850, 611534338.276400, 0.003420, 0.000413, 0.001227, 0.000106, 0.000079
95854, 611534357.659000, 0.003380, 0.000178, 0.001184, 0.000104, 0.000079
95858, 611534377.244000, 0.003376, 0.000380, 0.001247, 0.000107, 0.000079
95862, 611534398.910100, 0.003301, 0.000143, 0.001226, 0.000100, 0.000078
95866, 611534417.788100, 0.003373, 0.000205, 0.001272, 0.000105, 0.000078
95870, 611534439.726400, 0.003370, 0.000191, 0.001336, 0.000119, 0.000078
95874, 611534459.579900, 0.003408, 0.000221, 0.001195, 0.000098, 0.000078
95878, 611534478.288600, 0.003208, 0.000167, 0.001300, 0.000114, 0.000079
95882, 611534497.025700, 0.003399, 0.000417, 0.001493, 0.000116, 0.000079
95886, 611534518.686200, 0.003395, 0.000397, 0.001308, 0.000098, 0.000079
95890, 611534537.090100, 0.003413, 0.000238, 0.001171, 0.000102, 0.000078
95894, 611534558.851100, 0.003228, 0.000166, 0.001284, 0.000169, 0.000078
95898, 611534577.354700, 0.003408, 0.000395, 0.001388, 0.000115, 0.000080
95903, 611534600.003200, 0.003431, 0.000382, 0.001252, 0.000096, 0.000080
95906, 611534619.523100, 0.003413, 0.000379, 0.001228, 0.000098, 0.000080
95910, 611534637.997700, 0.003405, 0.000379, 0.001265, 0.000109, 0.000077
95914, 611534659.747700, 0.003381, 0.000392, 0.001301, 0.000113, 0.000078
95918, 611534678.896100, 0.003228, 0.000184, 0.001681, 0.000135, 0.000078
95922, 611534697.363800, 0.003425, 0.000316, 0.001167, 0.000102, 0.000078
95926, 611534718.876900, 0.003228, 0.000166, 0.001281, 0.000118, 0.000080
95930, 611534737.304700, 0.003395, 0.000339, 0.001161, 0.000107, 0.000080
95934, 611534758.868000, 0.003284, 0.000378, 0.001164, 0.000098, 0.000080
95938, 611534777.665800, 0.003242, 0.000192, 0.001417, 0.000121, 0.000080
95943, 611534799.692100, 0.003381, 0.000214, 0.001236, 0.000100, 0.000080
95946, 611534818.326500, 0.003415, 0.000383, 0.001318, 0.000100, 0.000081
95950, 611534837.120900, 0.003277, 0.000177, 0.001279, 0.000114, 0.000081
95954, 611534858.961300, 0.003284, 0.000154, 0.001209, 0.000101, 0.000081
95958, 611534878.016400, 0.003406, 0.000298, 0.001234, 0.000108, 0.000081
95962, 611534897.368800, 0.003349, 0.000294, 0.001370, 0.000108, 0.000085
95967, 611534919.522600, 0.003327, 0.000286, 0.001217, 0.000102, 0.000085
95970, 611534938.523700, 0.003421, 0.000320, 0.001240, 0.000100, 0.000087
95974, 611534957.152600, 0.003342, 0.000286, 0.001269, 0.000102, 0.000086
95978, 611534978.954600, 0.003231, 0.000170, 0.001259, 0.000107, 0.000084
95982, 611534997.842300, 0.003229, 0.000152, 0.001240, 0.000109, 0.000084
95987, 611535019.599100, 0.003237, 0.000174, 0.001282, 0.000107, 0.000082
95990, 611535038.266000, 0.003245, 0.000172, 0.001285, 0.000116, 0.000083
95994, 611535057.076600, 0.003236, 0.000169, 0.001253, 0.000109, 0.000084
95998, 611535078.677300, 0.003230, 0.000167, 0.001254, 0.000111, 0.000084
96002, 611535097.495600, 0.003249, 0.000163, 0.001258, 0.000108, 0.000084
96007, 611535119.474000, 0.003216, 0.000164, 0.001264, 0.000113, 0.000082
96010, 611535138.306900, 0.003249, 0.000172, 0.001317, 0.000110, 0.000083
96014, 611535157.157000, 0.003269, 0.000162, 0.001274, 0.000094, 0.000084
96019, 611535179.664800, 0.003234, 0.000146, 0.001228, 0.000107, 0.000085
96022, 611535198.354800, 0.003382, 0.000331, 0.001247, 0.000116, 0.000086
96026, 611535217.409500, 0.003413, 0.000325, 0.001245, 0.000091, 0.000089
96030, 611535237.073100, 0.003387, 0.000303, 0.001209, 0.000101, 0.000089
96034, 611535258.704000, 0.003418, 0.000299, 0.001142, 0.000108, 0.000089
96038, 611535277.936400, 0.003227, 0.000152, 0.001281, 0.000109, 0.000089
96043, 611535299.648600, 0.003381, 0.000192, 0.001191, 0.000101, 0.000086
96046, 611535318.615800, 0.003366, 0.000387, 0.001279, 0.000102, 0.000089
96050, 611535338.954700, 0.003410, 0.000368, 0.001181, 0.000103, 0.000087
96054, 611535357.979300, 0.003337, 0.000390, 0.001375, 0.000106, 0.000086
96058, 611535376.992500, 0.003374, 0.000372, 0.001256, 0.000110, 0.000088
96062, 611535399.239700, 0.003381, 0.000387, 0.001282, 0.000104, 0.000090
96066, 611535418.213900, 0.003268, 0.000153, 0.001185, 0.000100, 0.000093
96071, 611535439.764000, 0.003285, 0.000162, 0.001346, 0.000111, 0.000092
96074, 611535458.168800, 0.003408, 0.000280, 0.001226, 0.000110, 0.000090
96078, 611535476.845300, 0.003221, 0.000147, 0.001177, 0.000109, 0.000090
96082, 611535498.928800, 0.003229, 0.000156, 0.001252, 0.000163, 0.000091
96086, 611535517.975200, 0.003412, 0.000193, 0.001283, 0.000115, 0.000091
96090, 611535536.919000, 0.003414, 0.000284, 0.001188, 0.000100, 0.000091
96094, 611535558.381400, 0.003358, 0.000377, 0.001322, 0.000104, 0.000089
96098, 611535577.187300, 0.003257, 0.000142, 0.001197, 0.000100, 0.000091
96102, 611535598.593800, 0.003385, 0.000404, 0.001321, 0.000112, 0.000092
96106, 611535617.610400, 0.003381, 0.000282, 0.001235, 0.000101, 0.000090
96110, 611535638.703300, 0.003374, 0.000378, 0.001421, 0.000108, 0.000089
96114, 611535657.516000, 0.003381, 0.000368, 0.001262, 0.000103, 0.000090
96118, 611535677.321600, 0.003231, 0.000175, 0.001453, 0.000114, 0.000089
96122, 611535699.502000, 0.003416, 0.000387, 0.001320, 0.000108, 0.000087
96126, 611535717.579600, 0.003410, 0.000216, 0.001198, 0.000103, 0.000086
96131, 611535740.788100, 0.003382, 0.000416, 0.001281, 0.000110, 0.000085
96134, 611535756.816200, 0.003390, 0.000306, 0.001268, 0.000105, 0.000088
96138, 611535777.435100, 0.003274, 0.000162, 0.001184, 0.000109, 0.000087
96142, 611535799.105800, 0.003124, 0.000209, 0.001177, 0.000101, 0.000085
96146, 611535817.641000, 0.003356, 0.000327, 0.001156, 0.000100, 0.000084
96150, 611535839.593700, 0.003405, 0.000359, 0.001217, 0.000097, 0.000083
96154, 611535859.535700, 0.003411, 0.000373, 0.001205, 0.000102, 0.000083
96159, 611535881.394100, 0.003376, 0.000421, 0.001220, 0.000113, 0.000084
96163, 611535899.724800, 0.003383, 0.000236, 0.001228, 0.000113, 0.000083
96166, 611535917.701300, 0.003380, 0.000377, 0.001263, 0.000107, 0.000083
96170, 611535938.847000, 0.003421, 0.000377, 0.001238, 0.000105, 0.000084
96174, 611535957.717600, 0.003231, 0.000153, 0.001262, 0.000100, 0.000084
96178, 611535979.386400, 0.003372, 0.000269, 0.001198, 0.000105, 0.000082
96182, 611536000.170800, 0.003401, 0.000304, 0.001239, 0.000097, 0.000082
96186, 611536018.720900, 0.003413, 0.000219, 0.001279, 0.000103, 0.000081
96191, 611536039.878300, 0.003231, 0.000170, 0.001444, 0.000116, 0.000082
96194, 611536058.790200, 0.003387, 0.000357, 0.001115, 0.000099, 0.000084
96198, 611536077.672400, 0.003252, 0.000151, 0.001236, 0.000105, 0.000084
96202, 611536098.724600, 0.003408, 0.000389, 0.001353, 0.000102, 0.000086
96206, 611536116.903200, 0.003372, 0.000388, 0.001264, 0.000088, 0.000086
96210, 611536137.691700, 0.003377, 0.000276, 0.001086, 0.000100, 0.000089
96214, 611536156.817100, 0.003419, 0.000402, 0.001239, 0.000337, 0.000088
96218, 611536178.647300, 0.003354, 0.000214, 0.001298, 0.000114, 0.000087
96223, 611536199.976500, 0.003382, 0.000228, 0.001171, 0.000097, 0.000087
96226, 611536217.377900, 0.003379, 0.000257, 0.001269, 0.000099, 0.000089
96230, 611536236.828700, 0.003241, 0.000147, 0.001299, 0.000109, 0.000090
96234, 611536257.493700, 0.003430, 0.000395, 0.001262, 0.000221, 0.000091
96238, 611536278.902400, 0.003184, 0.000151, 0.001183, 0.000101, 0.000093
96242, 611536297.314900, 0.003413, 0.000284, 0.001234, 0.000098, 0.000092
96246, 611536319.100500, 0.003320, 0.000427, 0.001329, 0.000099, 0.000112
96250, 611536339.081600, 0.003338, 0.000328, 0.001306, 0.000111, 0.000112
96254, 611536357.679900, 0.003318, 0.000383, 0.001237, 0.000100, 0.000113
96258, 611536376.908600, 0.003234, 0.000165, 0.001474, 0.000104, 0.000133
96262, 611536398.697700, 0.003423, 0.000402, 0.001235, 0.000101, 0.000149
96266, 611536417.078500, 0.003417, 0.000215, 0.001208, 0.000114, 0.000148
96270, 611536438.720100, 0.003355, 0.000381, 0.001274, 0.000096, 0.000147
96274, 611536457.735400, 0.003546, 0.000139, 0.001222, 0.000098, 0.000146
96278, 611536479.555000, 0.003183, 0.000154, 0.001181, 0.000109, 0.000168
96282, 611536498.694500, 0.003409, 0.000361, 0.001280, 0.000105, 0.000166
96286, 611536517.813400, 0.003391, 0.000212, 0.001323, 0.000110, 0.000166
96290, 611536539.726800, 0.003411, 0.000353, 0.001334, 0.000107, 0.000163
96294, 611536558.705100, 0.003396, 0.000349, 0.001291, 0.000105, 0.000163
96298, 611536578.139100, 0.003345, 0.000152, 0.001310, 0.000103, 0.000165
96302, 611536598.047900, 0.003013, 0.000151, 0.001228, 0.000103, 0.000167
96306, 611536617.776100, 0.003350, 0.000234, 0.001177, 0.000099, 0.000166
96310, 611536638.909600, 0.003421, 0.000404, 0.001328, 0.000093, 0.000168
96314, 611536657.950800, 0.003393, 0.000364, 0.001349, 0.000100, 0.000167
96318, 611536677.030300, 0.003191, 0.000169, 0.001265, 0.000101, 0.000167
96322, 611536699.077000, 0.003263, 0.000355, 0.001176, 0.000099, 0.000168
96326, 611536718.966800, 0.003370, 0.000376, 0.001230, 0.000106, 0.000148
96330, 611536738.239200, 0.003413, 0.000404, 0.001521, 0.000111, 0.000149
96334, 611536757.359900, 0.003380, 0.000385, 0.001334, 0.000105, 0.000148
96338, 611536779.263200, 0.003232, 0.000155, 0.001204, 0.000104, 0.000128
96342, 611536797.995400, 0.003370, 0.000386, 0.001318, 0.000111, 0.000111
96347, 611536819.892000, 0.003238, 0.000136, 0.001172, 0.000098, 0.000117
96350, 611536838.650000, 0.003374, 0.000289, 0.001224, 0.000110, 0.000117
96354, 611536857.165300, 0.003234, 0.000185, 0.001545, 0.000100, 0.000116
96358, 611536879.377200, 0.003307, 0.000153, 0.001288, 0.000114, 0.000119
96362, 611536898.839000, 0.003385, 0.000373, 0.001323, 0.000104, 0.000121
96366, 611536917.582800, 0.003411, 0.000367, 0.001258, 0.000096, 0.000123
96370, 611536938.895500, 0.003224, 0.000160, 0.001213, 0.000100, 0.000123
96374, 611536958.180300, 0.003405, 0.000382, 0.001283, 0.000094, 0.000122
96378, 611536976.938600, 0.003381, 0.000411, 0.001429, 0.000116, 0.000122
96382, 611536998.281600, 0.003158, 0.000338, 0.001172, 0.000099, 0.000121
96386, 611537016.837300, 0.003410, 0.000294, 0.001132, 0.000102, 0.000119
96390, 611537038.316000, 0.003173, 0.000165, 0.001185, 0.000108, 0.000116
96394, 611537058.071400, 0.003402, 0.000389, 0.001171, 0.000097, 0.000119
96398, 611537076.816900, 0.003243, 0.000154, 0.001200, 0.000102, 0.000117
96402, 611537097.961500, 0.003227, 0.000152, 0.001312, 0.000104, 0.000116
96406, 611537118.596700, 0.003424, 0.000172, 0.001161, 0.000101, 0.000115
96410, 611537136.924600, 0.003375, 0.000397, 0.001229, 0.000107, 0.000114
96414, 611537158.634600, 0.003343, 0.000321, 0.001197, 0.000103, 0.000115
96418, 611537176.881500, 0.003247, 0.000153, 0.001296, 0.000104, 0.000116
96422, 611537197.943100, 0.003411, 0.000393, 0.001264, 0.000108, 0.000115
96426, 611537218.971500, 0.003424, 0.000221, 0.001189, 0.000105, 0.000109
96430, 611537238.232000, 0.003318, 0.000304, 0.001146, 0.000100, 0.000109
96434, 611537257.168200, 0.003352, 0.000396, 0.001190, 0.000108, 0.000111
96438, 611537279.039900, 0.003409, 0.000218, 0.001297, 0.000106, 0.000087
96442, 611537296.905400, 0.003409, 0.000214, 0.001199, 0.000100, 0.000085
96446, 611537319.210800, 0.003224, 0.000169, 0.001331, 0.000113, 0.000086
96450, 611537338.321800, 0.003367, 0.000439, 0.001564, 0.000109, 0.000086
96454, 611537357.007600, 0.003396, 0.000211, 0.001224, 0.000105, 0.000086
96458, 611537378.063400, 0.003393, 0.000373, 0.001349, 0.000100, 0.000087
96462, 611537399.091700, 0.003281, 0.000273, 0.001245, 0.000103, 0.000088
96466, 611537417.887400, 0.003415, 0.000381, 0.001310, 0.000108, 0.000088
96470, 611537439.116400, 0.003421, 0.000409, 0.001343, 0.000117, 0.000087
96474, 611537457.806400, 0.003422, 0.000373, 0.001345, 0.000101, 0.000083
96478, 611537479.406900, 0.003182, 0.000166, 0.001205, 0.000109, 0.000083
96482, 611537497.999200, 0.003419, 0.000338, 0.001247, 0.000101, 0.000083
96486, 611537519.512400, 0.003385, 0.000218, 0.001272, 0.000106, 0.000083
96490, 611537537.998700, 0.003413, 0.000335, 0.001273, 0.000104, 0.000082
96494, 611537557.160700, 0.003319, 0.000265, 0.001154, 0.000099, 0.000086
96498, 611537578.443200, 0.003267, 0.000160, 0.001236, 0.000105, 0.000085
96502, 611537596.859600, 0.003409, 0.000315, 0.001304, 0.000103, 0.000085
96506, 611537618.633000, 0.003249, 0.000163, 0.001311, 0.000120, 0.000087
96510, 611537637.370700, 0.003455, 0.000369, 0.001283, 0.000100, 0.000087
96514, 611537659.610700, 0.003419, 0.000170, 0.001165, 0.000098, 0.000084
96518, 611537678.883200, 0.003232, 0.000158, 0.001248, 0.000105, 0.000085
96522, 611537697.020000, 0.003375, 0.000203, 0.001193, 0.000111, 0.000085
96526, 611537718.604200, 0.003314, 0.000376, 0.001167, 0.000109, 0.000083
96530, 611537737.140400, 0.003399, 0.000329, 0.001245, 0.000106, 0.000087
96534, 611537759.344700, 0.003274, 0.000174, 0.001336, 0.000110, 0.000087
96538, 611537779.026900, 0.003371, 0.000393, 0.001240, 0.000105, 0.000085
96542, 611537796.980000, 0.003219, 0.000148, 0.001332, 0.000102, 0.000084
96546, 611537818.427200, 0.003428, 0.000280, 0.001218, 0.000108, 0.000084
96550, 611537837.099000, 0.003394, 0.000373, 0.001291, 0.000103, 0.000091
96554, 611537858.464000, 0.003566, 0.000273, 0.001168, 0.000104, 0.000092
96558, 611537878.058100, 0.003283, 0.000338, 0.001284, 0.000110, 0.000096
96562, 611537899.947900, 0.003396, 0.000265, 0.001142, 0.000099, 0.000097
96566, 611537918.345700, 0.003428, 0.000335, 0.001270, 0.000104, 0.000097
96570, 611537937.099100, 0.003369, 0.000377, 0.001264, 0.000098, 0.000097
96574, 611537958.273800, 0.003256, 0.000159, 0.001252, 0.000098, 0.000092
96579, 611537979.857700, 0.003355, 0.000323, 0.001187, 0.000109, 0.000092
96582, 611537998.618700, 0.003232, 0.000144, 0.001207, 0.000099, 0.000093
96587, 611538020.786000, 0.003358, 0.000392, 0.001197, 0.000098, 0.000093
96590, 611538039.650500, 0.003370, 0.000377, 0.001287, 0.000116, 0.000096
96594, 611538058.529300, 0.003404, 0.000370, 0.001272, 0.000098, 0.000098
96598, 611538077.556200, 0.003231, 0.000160, 0.001285, 0.000106, 0.000096
96602, 611538099.343900, 0.003533, 0.000391, 0.001223, 0.000107, 0.000096
96606, 611538117.488700, 0.003242, 0.000159, 0.001227, 0.000102, 0.000096
96610, 611538139.245500, 0.003404, 0.000239, 0.001191, 0.000095, 0.000124
96614, 611538157.154400, 0.003394, 0.000397, 0.001268, 0.000106, 0.000123
96618, 611538179.611600, 0.003232, 0.000148, 0.001261, 0.000105, 0.000140
96622, 611538197.967800, 0.003282, 0.000259, 0.001220, 0.000099, 0.000140
96626, 611538218.949600, 0.003404, 0.000387, 0.001359, 0.000104, 0.000140
96630, 611538237.108400, 0.003352, 0.000389, 0.001294, 0.000113, 0.000133
96634, 611538258.027100, 0.003425, 0.000382, 0.001366, 0.000109, 0.000134
96638, 611538279.323400, 0.003230, 0.000149, 0.001166, 0.000103, 0.000129
96642, 611538298.011600, 0.003394, 0.000385, 0.001200, 0.000101, 0.000129
96646, 611538316.998000, 0.003447, 0.000202, 0.001213, 0.000109, 0.000129
96650, 611538338.127500, 0.003398, 0.000377, 0.001399, 0.000108, 0.000132
96654, 611538357.103600, 0.003262, 0.000165, 0.001338, 0.000113, 0.000132
96658, 611538378.556100, 0.003289, 0.000158, 0.001215, 0.000101, 0.000132
96662, 611538397.455100, 0.003901, 0.000190, 0.001231, 0.000113, 0.000131
96666, 611538419.297700, 0.003289, 0.000172, 0.001338, 0.000119, 0.000130
96670, 611538437.922300, 0.003317, 0.000387, 0.001462, 0.000119, 0.000128
96675, 611538459.806700, 0.003392, 0.000336, 0.001283, 0.000120, 0.000130
96678, 611538478.374700, 0.003257, 0.000155, 0.001159, 0.000104, 0.000131
96683, 611538499.690200, 0.003226, 0.000153, 0.001265, 0.000108, 0.000133
96686, 611538518.550700, 0.003342, 0.000228, 0.001214, 0.000101, 0.000147
96690, 611538539.831700, 0.003401, 0.000360, 0.001200, 0.000098, 0.000118
96694, 611538558.597000, 0.003357, 0.000402, 0.001251, 0.000103, 0.000118
96698, 611538577.458200, 0.003414, 0.000383, 0.001268, 0.000108, 0.000101
96702, 611538599.104900, 0.003401, 0.000372, 0.001251, 0.000100, 0.000103
96706, 611538618.833500, 0.003413, 0.000275, 0.001206, 0.000099, 0.000107
96710, 611538637.455900, 0.003413, 0.000245, 0.001179, 0.000102, 0.000108
96714, 611538657.857000, 0.003235, 0.000176, 0.001390, 0.000114, 0.000107
96718, 611538677.166500, 0.003209, 0.000149, 0.001209, 0.000104, 0.000107
96722, 611538698.870500, 0.003312, 0.000377, 0.001245, 0.000103, 0.000108
96726, 611538720.148000, 0.003420, 0.000244, 0.001226, 0.000103, 0.000110
96730, 611538738.538400, 0.003395, 0.000252, 0.001165, 0.000100, 0.000106
96734, 611538757.053300, 0.003371, 0.000428, 0.001844, 0.000121, 0.000106
96739, 611538780.996700, 0.003351, 0.000336, 0.001321, 0.000109, 0.000107
96742, 611538797.407000, 0.003413, 0.000414, 0.001271, 0.000109, 0.000107
96747, 611538819.757500, 0.003240, 0.000158, 0.001230, 0.000098, 0.000108
96750, 611538839.421700, 0.003308, 0.000263, 0.001203, 0.000097, 0.000107
96754, 611538858.470700, 0.003240, 0.000247, 0.001387, 0.000113, 0.000104
96758, 611538877.985100, 0.003243, 0.000159, 0.001188, 0.000092, 0.000103
96762, 611538898.159800, 0.003408, 0.000212, 0.001151, 0.000096, 0.000127
96766, 611538917.449300, 0.003240, 0.000156, 0.001327, 0.000114, 0.000111
96770, 611538937.250000, 0.003232, 0.000158, 0.001228, 0.000098, 0.000113
96775, 611538959.922700, 0.003361, 0.000423, 0.001457, 0.000110, 0.000112
96778, 611538978.892000, 0.003336, 0.000380, 0.001293, 0.000108, 0.000116
96782, 611538999.410100, 0.003326, 0.000265, 0.001272, 0.000108, 0.000116
96786, 611539016.852800, 0.003378, 0.000397, 0.001336, 0.000096, 0.000114
96790, 611539037.778800, 0.003416, 0.000431, 0.001270, 0.000102, 0.000114
96795, 611539062.088100, 0.003379, 0.000317, 0.001342, 0.000101, 0.000113
96798, 611539078.439400, 0.003279, 0.000153, 0.001177, 0.000107, 0.000114
96802, 611539098.246500, 0.003412, 0.000340, 0.001248, 0.000096, 0.000115
96806, 611539118.691000, 0.003832, 0.000266, 0.001311, 0.000112, 0.000115
96810, 611539138.448100, 0.003413, 0.000422, 0.001517, 0.000123, 0.000115
96814, 611539158.494600, 0.003353, 0.000358, 0.001186, 0.000089, 0.000118
96818, 611539178.706600, 0.003222, 0.000182, 0.001318, 0.000115, 0.000117
96822, 611539198.214900, 0.003417, 0.000232, 0.001261, 0.000104, 0.000116
96826, 611539218.116200, 0.003375, 0.000247, 0.001227, 0.000102, 0.000115
96830, 611539237.257900, 0.003375, 0.000412, 0.001220, 0.000100, 0.000114
96834, 611539257.768400, 0.003222, 0.000166, 0.001285, 0.000111, 0.000115
96839, 611539282.366300, 0.003370, 0.000325, 0.001297, 0.000101, 0.000115
96842, 611539298.322200, 0.003422, 0.000436, 0.001308, 0.000101, 0.000089
96846, 611539317.502000, 0.003254, 0.000146, 0.001608, 0.000110, 0.000091
96850, 611539337.360900, 0.003235, 0.000142, 0.001133, 0.000102, 0.000088
96854, 611539357.107200, 0.003233, 0.000133, 0.001247, 0.000101, 0.000113
96858, 611539378.901100, 0.003411, 0.000388, 0.001234, 0.000104, 0.000110
96862, 611539398.014800, 0.003306, 0.000383, 0.001403, 0.000105, 0.000109
96866, 611539417.643200, 0.003403, 0.000228, 0.001186, 0.000102, 0.000107
96871, 611539439.937800, 0.003367, 0.000367, 0.001391, 0.000105, 0.000105
96874, 611539459.057000, 0.003376, 0.000408, 0.001233, 0.000106, 0.000105
96878, 611539478.274100, 0.003234, 0.000177, 0.001437, 0.000117, 0.000104
96882, 611539497.655300, 0.003409, 0.000471, 0.001335, 0.000107, 0.000102
96887, 611539519.723200, 0.003394, 0.000317, 0.001289, 0.000110, 0.000105
96890, 611539538.706800, 0.003407, 0.000407, 0.001252, 0.000105, 0.000107
96894, 611539557.627100, 0.003402, 0.000417, 0.001273, 0.000104, 0.000106
96898, 611539579.737900, 0.003253, 0.000149, 0.001170, 0.000103, 0.000110
96902, 611539598.519600, 0.003376, 0.000278, 0.001312, 0.000123, 0.000111
96906, 611539618.187600, 0.003375, 0.000313, 0.001290, 0.000094, 0.000111
96910, 611539637.258200, 0.003411, 0.000404, 0.001181, 0.000097, 0.000136
96914, 611539659.683700, 0.003414, 0.000385, 0.001305, 0.000102, 0.000146
96918, 611539677.940100, 0.003203, 0.000156, 0.001174, 0.000104, 0.000148
96922, 611539697.342400, 0.003368, 0.000358, 0.001319, 0.000103, 0.000172
96927, 611539719.332700, 0.003241, 0.000161, 0.001232, 0.000117, 0.000170
96930, 611539738.718800, 0.003383, 0.000405, 0.001248, 0.000102, 0.000171
96935, 611539759.383700, 0.003227, 0.000160, 0.001287, 0.000103, 0.000146
96938, 611539778.900700, 0.003269, 0.000163, 0.001218, 0.000109, 0.000170
96942, 611539797.158100, 0.003232, 0.000161, 0.001257, 0.000118, 0.000171
96946, 611539817.175400, 0.003405, 0.000372, 0.001399, 0.000100, 0.000171
96950, 611539836.968200, 0.003359, 0.000379, 0.001389, 0.000106, 0.000173
96954, 611539858.265600, 0.003391, 0.000385, 0.001325, 0.000108, 0.000176
96958, 611539877.714000, 0.003195, 0.000154, 0.001374, 0.000101, 0.000178
96962, 611539899.032000, 0.003410, 0.000246, 0.001216, 0.000098, 0.000178
96966, 611539917.392100, 0.003414, 0.000414, 0.001300, 0.000101, 0.000178
96970, 611539938.740400, 0.003424, 0.000294, 0.001208, 0.000101, 0.000175
96974, 611539957.880200, 0.003364, 0.000424, 0.001681, 0.000116, 0.000174
96978, 611539978.992100, 0.003402, 0.000242, 0.001202, 0.000104, 0.000171
96982, 611539997.510400, 0.003409, 0.000241, 0.001265, 0.000101, 0.000170
96986, 611540019.487300, 0.003376, 0.000375, 0.001252, 0.000103, 0.000170
96990, 611540038.721000, 0.003356, 0.000365, 0.001306, 0.000097, 0.000147
96994, 611540057.787800, 0.003411, 0.000387, 0.001239, 0.000101, 0.000136
96998, 611540077.502300, 0.003252, 0.000143, 0.001217, 0.000112, 0.000136
97002, 611540098.529500, 0.003350, 0.000266, 0.001230, 0.000114, 0.000112
97006, 611540117.661500, 0.003325, 0.000375, 0.001318, 0.000103, 0.000113
97010, 611540139.189600, 0.003418, 0.000399, 0.001669, 0.000115, 0.000113
97015, 611540163.664900, 0.003244, 0.000185, 0.001297, 0.000112, 0.000116
97019, 611540179.614200, 0.003318, 0.000381, 0.001304, 0.000101, 0.000093
97022, 611540197.884300, 0.003363, 0.000311, 0.001256, 0.000118, 0.000092
97027, 611540219.390400, 0.003378, 0.000243, 0.001181, 0.000107, 0.000092
97030, 611540237.725900, 0.003275, 0.000164, 0.001336, 0.000115, 0.000128
97035, 611540259.507500, 0.003402, 0.000404, 0.001134, 0.000097, 0.000125
97038, 611540277.533000, 0.003234, 0.000166, 0.001311, 0.000123, 0.000123
97042, 611540299.167700, 0.003400, 0.000418, 0.001142, 0.000102, 0.000125
97046, 611540317.830300, 0.003414, 0.000242, 0.001215, 0.000109, 0.000122
97050, 611540339.692400, 0.003264, 0.000153, 0.001253, 0.000105, 0.000124
97054, 611540358.139400, 0.003398, 0.000378, 0.001295, 0.000095, 0.000122
97058, 611540379.533800, 0.003372, 0.000374, 0.001354, 0.000104, 0.000123
97062, 611540397.951200, 0.003410, 0.000371, 0.001425, 0.000112, 0.000123
97067, 611540419.518200, 0.003237, 0.000153, 0.001219, 0.000108, 0.000123
97070, 611540437.600100, 0.003334, 0.000402, 0.001416, 0.000102, 0.000123
97074, 611540459.507400, 0.003371, 0.000391, 0.001301, 0.000103, 0.000122
97078, 611540478.021700, 0.003259, 0.000145, 0.001163, 0.000103, 0.000120
97083, 611540499.420400, 0.003234, 0.000177, 0.001223, 0.000112, 0.000119
97086, 611540517.552600, 0.003366, 0.000394, 0.001334, 0.000107, 0.000123
97090, 611540539.085600, 0.003375, 0.000350, 0.001163, 0.000095, 0.000124
97095, 611540559.520300, 0.003217, 0.000155, 0.001321, 0.000101, 0.000122
97098, 611540577.829400, 0.003348, 0.000345, 0.001346, 0.000096, 0.000121
97103, 611540599.972600, 0.003382, 0.000374, 0.001272, 0.000102, 0.000122
97106, 611540617.385300, 0.003238, 0.000156, 0.001220, 0.000102, 0.000123
97110, 611540639.444000, 0.003351, 0.000293, 0.001244, 0.000107, 0.000088
97114, 611540658.712500, 0.003241, 0.000195, 0.001378, 0.000118, 0.000087
97118, 611540677.531100, 0.003403, 0.000358, 0.001323, 0.000115, 0.000087
97122, 611540698.339200, 0.003232, 0.000153, 0.001298, 0.000118, 0.000086
97126, 611540716.801200, 0.003365, 0.000359, 0.001239, 0.000104, 0.000086
97130, 611540737.800700, 0.003340, 0.000405, 0.001303, 0.000111, 0.000084
97134, 611540758.716000, 0.003466, 0.000268, 0.001195, 0.000099, 0.000086
97139, 611540779.714800, 0.003251, 0.000152, 0.001245, 0.000109, 0.000086
97142, 611540797.751900, 0.003406, 0.000261, 0.001273, 0.000108, 0.000086
97146, 611540818.662900, 0.003426, 0.000264, 0.001188, 0.000100, 0.000088
97150, 611540839.576200, 0.003169, 0.000154, 0.001291, 0.000118, 0.000086
97154, 611540857.555700, 0.003430, 0.000345, 0.001194, 0.000096, 0.000087
97158, 611540879.535000, 0.003202, 0.000156, 0.001259, 0.000112, 0.000089
97163, 611540902.791200, 0.003397, 0.000376, 0.001316, 0.000101, 0.000090
97166, 611540917.364200, 0.003209, 0.000143, 0.001275, 0.000101, 0.000086
97170, 611540939.108300, 0.003365, 0.000377, 0.001224, 0.000098, 0.000084
97174, 611540957.169400, 0.003361, 0.000412, 0.001266, 0.000107, 0.000084
97178, 611540978.172800, 0.003310, 0.000162, 0.001238, 0.000109, 0.000085
97191, 611541040.326600, 0.003372, 0.000289, 0.001292, 0.000103, 0.000084
97192, 611541044.671100, 0.003357, 0.000371, 0.001327, 0.000100, 0.000084
97193, 611541049.684100, 0.003382, 0.000376, 0.001371, 0.000101, 0.000081
97194, 611541057.987800, 0.003363, 0.000363, 0.001292, 0.000100, 0.000081
97198, 611541076.987200, 0.003415, 0.000367, 0.001260, 0.000112, 0.000083
97202, 611541099.196500, 0.003412, 0.000406, 0.001296, 0.000119, 0.000083
97206, 611541117.847900, 0.003236, 0.000163, 0.001205, 0.000109, 0.000085
97210, 611541137.229400, 0.003376, 0.000385, 0.001230, 0.000099, 0.000085
97214, 611541156.955700, 0.003365, 0.000359, 0.001180, 0.000099, 0.000084
97218, 611541176.993400, 0.003230, 0.000158, 0.001254, 0.000115, 0.000083
97223, 611541200.079000, 0.003375, 0.000376, 0.001184, 0.000107, 0.000085
97226, 611541216.936900, 0.003394, 0.000369, 0.001244, 0.000110, 0.000085
97231, 611541239.311800, 0.003226, 0.000162, 0.001295, 0.000120, 0.000087
97234, 611541258.326300, 0.003396, 0.000395, 0.001276, 0.000100, 0.000085
97238, 611541277.455400, 0.003254, 0.000142, 0.001178, 0.000103, 0.000085
97243, 611541299.774700, 0.003365, 0.000263, 0.001216, 0.000103, 0.000084
97246, 611541318.234900, 0.003383, 0.000413, 0.001203, 0.000103, 0.000085
97250, 611541336.853800, 0.003407, 0.000373, 0.001199, 0.000100, 0.000086
97254, 611541358.416100, 0.003405, 0.000421, 0.001368, 0.000107, 0.000087
97258, 611541377.247600, 0.003301, 0.000163, 0.001237, 0.000103, 0.000089
97262, 611541399.030000, 0.003311, 0.000373, 0.001334, 0.000106, 0.000090
97266, 611541417.808700, 0.003411, 0.000411, 0.001207, 0.000102, 0.000089
97270, 611541436.915600, 0.003402, 0.000341, 0.001218, 0.000102, 0.000092
97274, 611541458.800600, 0.003418, 0.000398, 0.001238, 0.000109, 0.000092
97278, 611541478.031900, 0.003184, 0.000151, 0.001176, 0.000104, 0.000092
97282, 611541497.257200, 0.003371, 0.000387, 0.001411, 0.000093, 0.000092
97287, 611541519.639500, 0.003231, 0.000170, 0.001329, 0.000173, 0.000092
97290, 611541538.524600, 0.003472, 0.000477, 0.001313, 0.000096, 0.000093
97294, 611541558.037100, 0.003407, 0.000311, 0.001273, 0.000100, 0.000094
97298, 611541578.419500, 0.003251, 0.000151, 0.001181, 0.000105, 0.000093
97302, 611541597.504900, 0.003414, 0.000397, 0.001400, 0.000103, 0.000093
97306, 611541619.375100, 0.003413, 0.000436, 0.001188, 0.000106, 0.000090
97310, 611541637.506900, 0.003405, 0.000385, 0.001390, 0.000101, 0.000090
97315, 611541659.844800, 0.003241, 0.000186, 0.001448, 0.000126, 0.000090
97318, 611541678.485000, 0.003375, 0.000334, 0.001288, 0.000114, 0.000089
97322, 611541697.133800, 0.003363, 0.000412, 0.001325, 0.000118, 0.000090
97327, 611541721.580700, 0.003396, 0.000357, 0.001300, 0.000096, 0.000088
97331, 611541740.965000, 0.003355, 0.000445, 0.001388, 0.000111, 0.000088
97334, 611541759.642400, 0.003338, 0.000277, 0.001174, 0.000096, 0.000086
97338, 611541778.196900, 0.003347, 0.000380, 0.001281, 0.000108, 0.000084
97342, 611541797.218700, 0.002855, 0.000158, 0.001380, 0.000128, 0.000082
97346, 611541819.322200, 0.003374, 0.000382, 0.001360, 0.000106, 0.000082
97350, 611541838.586000, 0.003359, 0.000358, 0.001294, 0.000105, 0.000080
97354, 611541858.018500, 0.003415, 0.000429, 0.001251, 0.000103, 0.000080
97358, 611541878.154100, 0.003227, 0.000150, 0.001364, 0.000095, 0.000078
97362, 611541897.937000, 0.003421, 0.000385, 0.001150, 0.000104, 0.000079
97366, 611541917.627200, 0.003227, 0.000151, 0.001245, 0.000113, 0.000078
97370, 611541937.635900, 0.003255, 0.000159, 0.001373, 0.000111, 0.000080
97374, 611541957.194200, 0.003413, 0.000337, 0.001192, 0.000101, 0.000080
97378, 611541977.391500, 0.003254, 0.000146, 0.001209, 0.000103, 0.000080
97383, 611542000.081000, 0.003400, 0.000366, 0.001371, 0.000101, 0.000079
97387, 611542019.557000, 0.003209, 0.000160, 0.001287, 0.000109, 0.000079
97390, 611542039.329000, 0.003362, 0.000381, 0.001374, 0.000099, 0.000080
97394, 611542058.401100, 0.003246, 0.000146, 0.001213, 0.000096, 0.000081
97398, 611542077.332700, 0.003398, 0.000284, 0.001251, 0.000110, 0.000079
97403, 611542099.628100, 0.003371, 0.000273, 0.001215, 0.000098, 0.000079
97406, 611542118.479500, 0.003347, 0.000379, 0.001332, 0.000102, 0.000082
97410, 611542137.447400, 0.003399, 0.000401, 0.001175, 0.000099, 0.000082
97414, 611542156.973200, 0.003354, 0.000352, 0.001356, 0.000104, 0.000083
97419, 611542179.500200, 0.003399, 0.000366, 0.001186, 0.000101, 0.000082
97422, 611542199.430000, 0.003375, 0.000413, 0.001270, 0.000107, 0.000082
97426, 611542218.482500, 0.003232, 0.000160, 0.001246, 0.000122, 0.000084
97430, 611542237.253100, 0.003443, 0.000485, 0.001383, 0.000108, 0.000085
97435, 611542259.840600, 0.003363, 0.000406, 0.001387, 0.000101, 0.000087
97439, 611542279.679700, 0.003365, 0.000369, 0.001314, 0.000101, 0.000088
97442, 611542298.509300, 0.003394, 0.000386, 0.001362, 0.000109, 0.000089
97446, 611542317.509600, 0.003403, 0.000394, 0.001374, 0.000152, 0.000088
97450, 611542336.829400, 0.003406, 0.000392, 0.001336, 0.000110, 0.000089
97454, 611542358.683500, 0.003433, 0.000409, 0.001353, 0.000101, 0.000087
97458, 611542378.087500, 0.003184, 0.000149, 0.001250, 0.000115, 0.000087
97462, 611542399.113000, 0.003424, 0.000378, 0.001240, 0.000099, 0.000086
97466, 611542418.811200, 0.003404, 0.000393, 0.001292, 0.000097, 0.000087
97470, 611542438.045800, 0.003427, 0.000400, 0.001318, 0.000103, 0.000085
97474, 611542457.487500, 0.003377, 0.000293, 0.001187, 0.000099, 0.000086
97479, 611542480.207200, 0.003375, 0.000355, 0.001126, 0.000113, 0.000087
97482, 611542498.946100, 0.003396, 0.000375, 0.001255, 0.000101, 0.000089
97486, 611542517.989200, 0.003373, 0.000383, 0.001228, 0.000089, 0.000086
97490, 611542537.101300, 0.003413, 0.000404, 0.001411, 0.000095, 0.000085
97494, 611542558.623900, 0.003411, 0.000370, 0.001389, 0.000366, 0.000085
97498, 611542577.367900, 0.003248, 0.000188, 0.001377, 0.000119, 0.000085
97502, 611542599.223800, 0.003413, 0.000329, 0.001249, 0.000108, 0.000085
97507, 611542619.975900, 0.003401, 0.000408, 0.001366, 0.000113, 0.000085
97510, 611542638.503800, 0.003373, 0.000391, 0.001373, 0.000105, 0.000085
97514, 611542657.381000, 0.003417, 0.000386, 0.001324, 0.000100, 0.000085
97518, 611542679.444800, 0.003176, 0.000155, 0.001267, 0.000104, 0.000084
97522, 611542698.139600, 0.003381, 0.000370, 0.001248, 0.000101, 0.000082
97527, 611542722.083500, 0.003372, 0.000398, 0.001366, 0.000097, 0.000081
97531, 611542743.789800, 0.003375, 0.000435, 0.001221, 0.000106, 0.000080
97534, 611542756.898700, 0.003412, 0.000387, 0.001599, 0.000115, 0.000080
97538, 611542779.291900, 0.003400, 0.000418, 0.001353, 0.000107, 0.000081
97542, 611542797.541200, 0.003413, 0.000422, 0.001423, 0.000108, 0.000081
97546, 611542817.460600, 0.003398, 0.000335, 0.001211, 0.000108, 0.000081
97550, 611542837.274200, 0.003174, 0.000168, 0.001265, 0.000106, 0.000083
97554, 611542857.012400, 0.003269, 0.000157, 0.001266, 0.000115, 0.000081
97558, 611542879.449100, 0.003183, 0.000144, 0.001267, 0.000110, 0.000083
97562, 611542898.528500, 0.003376, 0.000369, 0.001289, 0.000107, 0.000083
97566, 611542917.701100, 0.003396, 0.000362, 0.001312, 0.000109, 0.000082
97570, 611542938.247000, 0.003391, 0.000373, 0.001434, 0.000101, 0.000082
97574, 611542958.210200, 0.003341, 0.000402, 0.001241, 0.000104, 0.000083
97578, 611542977.207700, 0.003319, 0.000160, 0.001307, 0.000115, 0.000084
97582, 611542996.969000, 0.003381, 0.000321, 0.001213, 0.000113, 0.000084
97587, 611543019.753200, 0.003372, 0.000401, 0.001344, 0.000099, 0.000083
97591, 611543039.313400, 0.003204, 0.000162, 0.001352, 0.000120, 0.000083
97594, 611543058.561000, 0.003419, 0.000301, 0.001220, 0.000106, 0.000081
97598, 611543077.976100, 0.003360, 0.000288, 0.001244, 0.000112, 0.000082
97602, 611543097.674100, 0.003411, 0.000412, 0.001348, 0.000100, 0.000082
97606, 611543117.189400, 0.003416, 0.000345, 0.001219, 0.000100, 0.000084
97610, 611543139.537800, 0.003258, 0.000156, 0.001237, 0.000107, 0.000083
97614, 611543159.083500, 0.003426, 0.000396, 0.001417, 0.000102, 0.000083
97618, 611543178.597900, 0.003235, 0.000154, 0.001229, 0.000108, 0.000083
97622, 611543198.034300, 0.003381, 0.000279, 0.001175, 0.000106, 0.000085
97626, 611543218.460700, 0.003442, 0.000375, 0.001397, 0.000111, 0.000088
97630, 611543238.616500, 0.003366, 0.000373, 0.001173, 0.000103, 0.000085
97634, 611543258.091700, 0.003371, 0.000321, 0.001155, 0.000101, 0.000087
97638, 611543277.910000, 0.003231, 0.000152, 0.001203, 0.000113, 0.000085
97642, 611543297.680300, 0.003378, 0.000371, 0.001443, 0.000101, 0.000086
97646, 611543319.167300, 0.003449, 0.000378, 0.001223, 0.000095, 0.000119
97650, 611543339.321500, 0.003387, 0.000348, 0.001178, 0.000098, 0.000120
97654, 611543359.383400, 0.003418, 0.000361, 0.001229, 0.000103, 0.000120
97658, 611543379.174700, 0.003250, 0.000161, 0.001244, 0.000110, 0.000118
97662, 611543397.638100, 0.003376, 0.000334, 0.001487, 0.000103, 0.000119
97666, 611543419.331200, 0.003407, 0.000250, 0.001322, 0.000100, 0.000120
97670, 611543439.927400, 0.003417, 0.000289, 0.001282, 0.000151, 0.000119
97675, 611543459.829100, 0.003402, 0.000378, 0.001304, 0.000108, 0.000120
97678, 611543477.750000, 0.003186, 0.000152, 0.001251, 0.000112, 0.000119
97682, 611543498.092900, 0.003399, 0.000371, 0.001251, 0.000113, 0.000121
97686, 611543517.042800, 0.003445, 0.000395, 0.001309, 0.000102, 0.000120
97690, 611543537.682300, 0.003394, 0.000378, 0.001218, 0.000104, 0.000120
97694, 611543557.963800, 0.003354, 0.000289, 0.001131, 0.000100, 0.000120
97698, 611543579.100600, 0.003236, 0.000156, 0.001208, 0.000104, 0.000121
97702, 611543597.746000, 0.003316, 0.000387, 0.001428, 0.000111, 0.000120
97706, 611543617.976000, 0.003365, 0.000374, 0.001251, 0.000104, 0.000117
97710, 611543637.689600, 0.003405, 0.000371, 0.001177, 0.000096, 0.000117
97715, 611543659.646900, 0.003239, 0.000164, 0.001375, 0.000120, 0.000115
97719, 611543679.588700, 0.003350, 0.000291, 0.001245, 0.000109, 0.000116
97723, 611543699.854500, 0.003370, 0.000402, 0.001403, 0.000101, 0.000116
97727, 611543719.947700, 0.003229, 0.000158, 0.001354, 0.000110, 0.000083
97730, 611543738.559000, 0.003205, 0.000169, 0.001407, 0.000111, 0.000083
97734, 611543758.725500, 0.003364, 0.000406, 0.001431, 0.000346, 0.000082
97738, 611543778.710700, 0.003373, 0.000381, 0.001308, 0.000097, 0.000083
97742, 611543798.763200, 0.003230, 0.000165, 0.001412, 0.000113, 0.000082
97746, 611543818.228300, 0.003225, 0.000163, 0.001324, 0.000110, 0.000080
97750, 611543838.059000, 0.003413, 0.000395, 0.001379, 0.000108, 0.000083
97754, 611543857.543500, 0.003286, 0.000167, 0.001490, 0.000114, 0.000082
97758, 611543877.927400, 0.003230, 0.000164, 0.001237, 0.000113, 0.000083
97762, 611543897.871900, 0.003144, 0.000158, 0.001239, 0.000110, 0.000081
97766, 611543917.860500, 0.003411, 0.000402, 0.001361, 0.000102, 0.000082
97771, 611543939.975200, 0.003377, 0.000411, 0.001260, 0.000104, 0.000083
97774, 611543957.304800, 0.003354, 0.000366, 0.001331, 0.000095, 0.000084
97778, 611543978.135200, 0.003282, 0.000152, 0.001183, 0.000104, 0.000086
97783, 611543999.813500, 0.003339, 0.000375, 0.001321, 0.000101, 0.000085
97787, 611544019.649400, 0.003353, 0.000377, 0.001392, 0.000097, 0.000086
97791, 611544039.791500, 0.003362, 0.000422, 0.001171, 0.000105, 0.000087
97794, 611544057.956700, 0.003232, 0.000172, 0.001247, 0.000117, 0.000087
97798, 611544077.332000, 0.003175, 0.000146, 0.001227, 0.000107, 0.000086
97802, 611544096.883800, 0.003468, 0.000380, 0.001357, 0.000104, 0.000085
97806, 611544116.987600, 0.003381, 0.000278, 0.001205, 0.000098, 0.000085
97810, 611544137.518600, 0.003497, 0.000386, 0.001221, 0.000110, 0.000084
97814, 611544157.237100, 0.003241, 0.000156, 0.001317, 0.000146, 0.000084
97819, 611544179.754000, 0.003248, 0.000159, 0.001220, 0.000100, 0.000085
97823, 611544199.714500, 0.003366, 0.000280, 0.001296, 0.000113, 0.000086
97826, 611544219.368800, 0.003255, 0.000155, 0.001213, 0.000109, 0.000089
97830, 611544236.879100, 0.003344, 0.000384, 0.001327, 0.000101, 0.000087
97835, 611544259.877300, 0.003307, 0.000177, 0.001402, 0.000123, 0.000088
97838, 611544279.000700, 0.003251, 0.000154, 0.001261, 0.000106, 0.000088
97842, 611544298.231400, 0.003415, 0.000426, 0.001268, 0.000103, 0.000089
97846, 611544317.639800, 0.003233, 0.000147, 0.001205, 0.000107, 0.000088
97850, 611544337.604700, 0.003381, 0.000342, 0.001213, 0.000100, 0.000086
97854, 611544357.064700, 0.003362, 0.000343, 0.001181, 0.000102, 0.000084
97859, 611544379.750200, 0.003404, 0.000388, 0.001374, 0.000117, 0.000082
97862, 611544398.938400, 0.003399, 0.000372, 0.001305, 0.000106, 0.000083
97866, 611544418.444300, 0.003416, 0.000497, 0.001305, 0.000099, 0.000083
97870, 611544437.821700, 0.003399, 0.000378, 0.001394, 0.000100, 0.000083
97874, 611544457.085300, 0.003427, 0.000281, 0.001155, 0.000099, 0.000082
97878, 611544479.538800, 0.003261, 0.000153, 0.001283, 0.000104, 0.000081
97882, 611544498.611100, 0.003382, 0.000439, 0.001341, 0.000100, 0.000083
97886, 611544517.555300, 0.003354, 0.000386, 0.001363, 0.000107, 0.000082
97891, 611544540.102000, 0.003171, 0.000148, 0.001331, 0.000117, 0.000084
97895, 611544559.205600, 0.003255, 0.000155, 0.001306, 0.000101, 0.000085
97898, 611544578.402200, 0.003419, 0.000382, 0.001319, 0.000114, 0.000084
97902, 611544597.626900, 0.003155, 0.000382, 0.001402, 0.000099, 0.000084
97907, 611544619.953200, 0.003351, 0.000284, 0.001185, 0.000107, 0.000083
97910, 611544639.276800, 0.003358, 0.000323, 0.001371, 0.000105, 0.000083
97914, 611544658.593200, 0.003241, 0.000175, 0.001405, 0.000125, 0.000084
97918, 611544677.790800, 0.003230, 0.000157, 0.001302, 0.000108, 0.000084
97922, 611544697.382100, 0.003412, 0.000383, 0.001320, 0.000105, 0.000083
97926, 611544716.955400, 0.003403, 0.000447, 0.001364, 0.000105, 0.000084
97931, 611544739.579800, 0.003247, 0.000146, 0.001510, 0.000122, 0.000085
97934, 611544758.934900, 0.003222, 0.000164, 0.001256, 0.000099, 0.000087
97938, 611544778.198900, 0.003209, 0.000155, 0.001167, 0.000109, 0.000087
97942, 611544797.477000, 0.003397, 0.000383, 0.001292, 0.000106, 0.000087
97947, 611544819.859100, 0.003355, 0.000299, 0.001192, 0.000100, 0.000085
97950, 611544839.244300, 0.003415, 0.000371, 0.001374, 0.000102, 0.000086
97954, 611544858.538100, 0.003893, 0.000252, 0.001427, 0.000094, 0.000088
97959, 611544881.525800, 0.003397, 0.000292, 0.001273, 0.000109, 0.000088
97962, 611544897.964000, 0.003408, 0.000431, 0.001325, 0.000106, 0.000088
97966, 611544917.334200, 0.003386, 0.000374, 0.001417, 0.000107, 0.000088
97970, 611544937.400100, 0.003228, 0.000155, 0.001269, 0.000113, 0.000087
97974, 611544957.389700, 0.003400, 0.000406, 0.001468, 0.000106, 0.000088
97978, 611544977.042200, 0.003384, 0.000378, 0.001312, 0.000115, 0.000087
97982, 611544998.640800, 0.003374, 0.000366, 0.001214, 0.000105, 0.000085
97986, 611545019.119700, 0.003370, 0.000387, 0.001321, 0.000097, 0.000085
97990, 611545038.158700, 0.003412, 0.000380, 0.001197, 0.000099, 0.000084
97994, 611545057.045800, 0.003372, 0.000303, 0.001147, 0.000109, 0.000082
97999, 611545080.996800, 0.003410, 0.000367, 0.001246, 0.000111, 0.000080
98003, 611545099.987800, 0.003358, 0.000352, 0.001278, 0.000101, 0.000083
98007, 611545119.834900, 0.003364, 0.000376, 0.001410, 0.000108, 0.000083
98010, 611545139.293400, 0.003362, 0.000384, 0.001439, 0.000101, 0.000082
98014, 611545158.714000, 0.003358, 0.000411, 0.001306, 0.000101, 0.000082
98018, 611545178.061000, 0.003227, 0.000163, 0.001371, 0.000108, 0.000082
98022, 611545197.494200, 0.003224, 0.000154, 0.001305, 0.000110, 0.000084
98026, 611545216.866800, 0.003222, 0.000163, 0.001296, 0.000111, 0.000084
98031, 611545239.881700, 0.003239, 0.000142, 0.001304, 0.000101, 0.000082
98035, 611545259.214300, 0.003227, 0.000151, 0.001338, 0.000094, 0.000081
98038, 611545278.357600, 0.003231, 0.000156, 0.001282, 0.000102, 0.000081
98042, 611545297.326700, 0.003226, 0.000167, 0.001361, 0.000113, 0.000080
98046, 611545316.869500, 0.003241, 0.000159, 0.001289, 0.000106, 0.000081
98051, 611545339.304000, 0.003230, 0.000158, 0.001327, 0.000165, 0.000081
98054, 611545358.491200, 0.003383, 0.000373, 0.001428, 0.000251, 0.000079
98055, 611545383.396900, 0.003233, 0.000171, 0.025422, 0.000145, 0.000079
98062, 611545399.564100, 0.003233, 0.000173, 0.001337, 0.000112, 0.000080
98067, 611545419.684700, 0.003227, 0.000168, 0.001334, 0.000105, 0.000080
98070, 611545436.909500, 0.003249, 0.000224, 0.001901, 0.000161, 0.000085
98074, 611545457.877900, 0.003251, 0.000168, 0.001412, 0.000106, 0.000111
98078, 611545477.619200, 0.003266, 0.000231, 0.001730, 0.000120, 0.000111
98082, 611545497.697400, 0.003225, 0.000166, 0.001347, 0.000107, 0.000109
98086, 611545517.538100, 0.003376, 0.000361, 0.001321, 0.000103, 0.000138
98090, 611545538.481700, 0.003182, 0.000157, 0.001367, 0.000105, 0.000137
98094, 611545559.407400, 0.003367, 0.000377, 0.001929, 0.000122, 0.000136
98098, 611545579.306500, 0.003474, 0.000160, 0.001308, 0.000098, 0.000135
98102, 611545599.303400, 0.003436, 0.000413, 0.001393, 0.000104, 0.000133
98106, 611545619.492700, 0.003238, 0.000163, 0.001378, 0.000107, 0.000137
98110, 611545639.992800, 0.003218, 0.000148, 0.001370, 0.000114, 0.000137
98114, 611545659.774100, 0.003228, 0.000154, 0.001250, 0.000104, 0.000136
98118, 611545679.752600, 0.003233, 0.000175, 0.001469, 0.000110, 0.000136
98122, 611545699.562100, 0.003236, 0.000169, 0.001389, 0.000112, 0.000135
98126, 611545719.164100, 0.003384, 0.000371, 0.001439, 0.000104, 0.000134
98130, 611545739.249600, 0.003407, 0.000382, 0.001478, 0.000102, 0.000134
98134, 611545758.963500, 0.003411, 0.000403, 0.001283, 0.000107, 0.000134
98138, 611545778.670800, 0.003187, 0.000163, 0.001357, 0.000115, 0.000133
98142, 611545798.740400, 0.003366, 0.000381, 0.001455, 0.000104, 0.000136
98146, 611545818.663500, 0.003402, 0.000381, 0.001455, 0.000101, 0.000135
98150, 611545839.173400, 0.003416, 0.000407, 0.001390, 0.000106, 0.000133
98154, 611545859.469700, 0.003224, 0.000160, 0.001468, 0.000108, 0.000106
98158, 611545879.161100, 0.003229, 0.000151, 0.001430, 0.000109, 0.000106
98162, 611545899.117800, 0.003230, 0.000184, 0.001553, 0.000121, 0.000106
98166, 611545919.104700, 0.003362, 0.000368, 0.001381, 0.000098, 0.000080
98170, 611545939.422900, 0.003228, 0.000157, 0.001359, 0.000114, 0.000080
98174, 611545959.941500, 0.003425, 0.000377, 0.001368, 0.000097, 0.000081
98178, 611545977.003700, 0.003256, 0.000160, 0.001328, 0.000110, 0.000084
98183, 611546000.005900, 0.003231, 0.000153, 0.001347, 0.000125, 0.000105
98186, 611546016.990800, 0.003278, 0.000160, 0.001246, 0.000104, 0.000104
98190, 611546037.851700, 0.003368, 0.000420, 0.001456, 0.000115, 0.000123
98194, 611546058.970100, 0.003411, 0.000384, 0.001441, 0.000107, 0.000123
98199, 611546079.368300, 0.003229, 0.000157, 0.001269, 0.000113, 0.000123
98203, 611546099.782100, 0.003349, 0.000392, 0.001322, 0.000104, 0.000125
98206, 611546117.219700, 0.003401, 0.000277, 0.001255, 0.000105, 0.000125
98210, 611546138.111200, 0.003415, 0.000313, 0.001197, 0.000107, 0.000125
98214, 611546158.753200, 0.003373, 0.000308, 0.001205, 0.000104, 0.000124
98218, 611546178.494200, 0.003239, 0.000170, 0.001370, 0.000119, 0.000124
98222, 611546198.296300, 0.003367, 0.000314, 0.001288, 0.000105, 0.000123
98226, 611546218.968100, 0.003417, 0.000426, 0.001426, 0.000106, 0.000124
98231, 611546240.185200, 0.003229, 0.000160, 0.001399, 0.000116, 0.000122
98234, 611546258.218000, 0.003214, 0.000154, 0.001281, 0.000104, 0.000136
98238, 611546279.418600, 0.003215, 0.000161, 0.001254, 0.000110, 0.000137
98242, 611546297.214700, 0.003369, 0.000376, 0.001322, 0.000113, 0.000137
98247, 611546320.616300, 0.003229, 0.000153, 0.001287, 0.000110, 0.000133
98251, 611546343.444900, 0.003366, 0.000368, 0.001501, 0.000100, 0.000134
98254, 611546357.945000, 0.003363, 0.000407, 0.001292, 0.000104, 0.000133
98258, 611546379.045100, 0.003236, 0.000170, 0.001362, 0.000117, 0.000131
98262, 611546399.836600, 0.003647, 0.000358, 0.001282, 0.000107, 0.000127
98266, 611546417.309900, 0.003217, 0.000194, 0.001473, 0.000122, 0.000146
98270, 611546438.316200, 0.003350, 0.000392, 0.001240, 0.000103, 0.000128
98274, 611546459.251000, 0.003375, 0.000380, 0.001519, 0.000105, 0.000129
98278, 611546479.891400, 0.003239, 0.000164, 0.001398, 0.000109, 0.000128
98282, 611546497.239000, 0.003226, 0.000163, 0.001348, 0.000115, 0.000129
98286, 611546517.609200, 0.003381, 0.000356, 0.001387, 0.000115, 0.000161
98290, 611546538.254300, 0.003419, 0.000395, 0.001316, 0.000097, 0.000162
98294, 611546558.427400, 0.003408, 0.000293, 0.001193, 0.000102, 0.000162
98298, 611546578.511500, 0.003230, 0.000174, 0.001349, 0.000106, 0.000163
98302, 611546599.456300, 0.003371, 0.000396, 0.001505, 0.000116, 0.000164
98306, 611546619.724400, 0.003397, 0.000387, 0.001370, 0.000107, 0.000164
98310, 611546636.933900, 0.003435, 0.000399, 0.001256, 0.000104, 0.000164
98314, 611546657.161900, 0.003236, 0.000159, 0.001332, 0.000111, 0.000151
98318, 611546677.485300, 0.003321, 0.000624, 0.001315, 0.000115, 0.000151
98322, 611546697.475000, 0.003416, 0.000295, 0.001325, 0.000111, 0.000153
98327, 611546721.027300, 0.003386, 0.000379, 0.001492, 0.000119, 0.000153
98330, 611546738.279400, 0.003261, 0.000186, 0.001411, 0.000119, 0.000172
98334, 611546758.994700, 0.003375, 0.000404, 0.001417, 0.000110, 0.000176
98338, 611546776.852500, 0.003232, 0.000161, 0.001359, 0.000112, 0.000175
98342, 611546797.521800, 0.003418, 0.000380, 0.001315, 0.000099, 0.000188
98348, 611546826.579600, 0.003220, 0.000155, 0.001464, 0.000120, 0.000168
98350, 611546837.016500, 0.003377, 0.000416, 0.001516, 0.000120, 0.000183
98354, 611546858.427400, 0.003339, 0.000376, 0.001422, 0.000110, 0.000182
98358, 611546878.643400, 0.003222, 0.000162, 0.001443, 0.000115, 0.000184
98362, 611546898.923000, 0.003230, 0.000159, 0.001292, 0.000115, 0.000183
98367, 611546923.908900, 0.003218, 0.000155, 0.001320, 0.000106, 0.000152
98370, 611546936.979600, 0.003413, 0.000387, 0.001378, 0.000104, 0.000151
98374, 611546957.371000, 0.003363, 0.000386, 0.001358, 0.000101, 0.000164
98378, 611546977.954800, 0.003177, 0.000156, 0.001336, 0.000121, 0.000164
98382, 611546998.828200, 0.003230, 0.000150, 0.001250, 0.000106, 0.000164
98386, 611547019.155500, 0.003403, 0.000413, 0.001484, 0.000103, 0.000166
98391, 611547039.854800, 0.003376, 0.000410, 0.001513, 0.000116, 0.000187
98394, 611547057.776300, 0.003229, 0.000148, 0.001291, 0.000110, 0.000191
98397, 611547077.808300, 0.003372, 0.000379, 0.001520, 0.000119, 0.000205
98402, 611547097.381800, 0.003259, 0.000240, 0.001704, 0.000114, 0.000205
98406, 611547117.604600, 0.003280, 0.000220, 0.001603, 0.000186, 0.000205
98410, 611547138.190900, 0.003276, 0.000237, 0.001423, 0.000122, 0.000185
98414, 611547158.740400, 0.003225, 0.000174, 0.001297, 0.000111, 0.000181
98418, 611547179.147400, 0.003237, 0.000139, 0.001082, 0.000094, 0.000183
98422, 611547199.383400, 0.003229, 0.000154, 0.001252, 0.000092, 0.000154
98427, 611547219.732500, 0.003241, 0.000189, 0.001591, 0.000230, 0.000152
98431, 611547239.948100, 0.003210, 0.000169, 0.001420, 0.000111, 0.000141
98434, 611547257.234400, 0.003263, 0.000175, 0.001284, 0.000108, 0.000144
98438, 611547277.230200, 0.003249, 0.000172, 0.001390, 0.000111, 0.000143
98442, 611547297.249000, 0.003263, 0.000174, 0.001234, 0.000104, 0.000143
98446, 611547317.276900, 0.003205, 0.000171, 0.001290, 0.000117, 0.000161
98450, 611547337.677900, 0.003413, 0.000331, 0.001221, 0.000093, 0.000161
98454, 611547358.267900, 0.003413, 0.000434, 0.001212, 0.000093, 0.000153
98458, 611547378.402100, 0.003192, 0.000151, 0.001201, 0.000100, 0.000154
98462, 611547399.221400, 0.003354, 0.000399, 0.001414, 0.000095, 0.000154
98466, 611547418.379200, 0.003277, 0.000177, 0.001248, 0.000108, 0.000152
98470, 611547437.105000, 0.003409, 0.000452, 0.001335, 0.000102, 0.000131
98474, 611547457.793800, 0.003401, 0.000421, 0.001632, 0.000109, 0.000132
98478, 611547477.950400, 0.003342, 0.000335, 0.001147, 0.000099, 0.000116
98482, 611547498.959900, 0.003245, 0.000155, 0.001214, 0.000102, 0.000115
98487, 611547519.782800, 0.003219, 0.000177, 0.001328, 0.000109, 0.000116
98490, 611547537.065600, 0.003268, 0.000169, 0.001229, 0.000104, 0.000117
98494, 611547557.677200, 0.003339, 0.000349, 0.001226, 0.000152, 0.000142
98498, 611547577.841300, 0.003231, 0.000160, 0.001247, 0.000110, 0.000166
98502, 611547597.977100, 0.003347, 0.000380, 0.001309, 0.000097, 0.000165
98506, 611547619.182200, 0.003298, 0.000400, 0.001406, 0.000098, 0.000168
98511, 611547639.956000, 0.003360, 0.000303, 0.001392, 0.000098, 0.000163
98515, 611547659.956700, 0.003342, 0.000394, 0.001252, 0.000088, 0.000160
98518, 611547679.910200, 0.003269, 0.000391, 0.001241, 0.000106, 0.000161
98522, 611547697.374100, 0.003229, 0.000179, 0.001453, 0.000117, 0.000162
98526, 611547717.397300, 0.003341, 0.000400, 0.001346, 0.000098, 0.000143
98530, 611547737.798000, 0.003383, 0.000423, 0.001299, 0.000102, 0.000142
98534, 611547757.780500, 0.003369, 0.000422, 0.001391, 0.000102, 0.000138
98538, 611547778.120300, 0.003215, 0.000200, 0.001230, 0.000108, 0.000136
98542, 611547798.315500, 0.003403, 0.000409, 0.001277, 0.000101, 0.000135
98546, 611547818.021400, 0.003329, 0.000426, 0.001369, 0.000105, 0.000136
98550, 611547838.627100, 0.003374, 0.000436, 0.001360, 0.000111, 0.000136
98554, 611547859.178400, 0.003349, 0.000438, 0.001438, 0.000101, 0.000135
98558, 611547879.200600, 0.003331, 0.000425, 0.001590, 0.000118, 0.000155
98562, 611547899.707200, 0.003222, 0.000164, 0.001271, 0.000117, 0.000155
98567, 611547920.037900, 0.003208, 0.000164, 0.001208, 0.000120, 0.000155
98571, 611547940.107600, 0.003204, 0.000172, 0.001289, 0.000115, 0.000158
98574, 611547956.900900, 0.003253, 0.000165, 0.001142, 0.000097, 0.000133
98578, 611547976.870800, 0.003238, 0.000187, 0.001415, 0.000119, 0.000127
98582, 611547997.060800, 0.003242, 0.000201, 0.001488, 0.000226, 0.000130
98586, 611548017.229400, 0.003247, 0.000202, 0.001526, 0.000120, 0.000147
98590, 611548036.954700, 0.003248, 0.000138, 0.001236, 0.000099, 0.000149
98594, 611548057.403300, 0.003471, 0.000404, 0.001177, 0.000096, 0.000175
98598, 611548076.896400, 0.003368, 0.000402, 0.001503, 0.000111, 0.000203
98602, 611548097.052000, 0.003230, 0.000165, 0.001243, 0.000105, 0.000203
98606, 611548117.170600, 0.003224, 0.000183, 0.001407, 0.000120, 0.000203
98610, 611548137.035600, 0.003385, 0.000419, 0.001462, 0.000112, 0.000205
98614, 611548157.886500, 0.003226, 0.000172, 0.001338, 0.000120, 0.000230
98618, 611548177.461500, 0.003369, 0.000429, 0.001492, 0.000116, 0.000232
98622, 611548197.291500, 0.003414, 0.000388, 0.001239, 0.000099, 0.000230
98626, 611548217.384900, 0.003233, 0.000148, 0.001166, 0.000104, 0.000230
98630, 611548238.252900, 0.003309, 0.000381, 0.001261, 0.000097, 0.000246
98634, 611548258.147500, 0.003342, 0.000381, 0.001370, 0.000099, 0.000245
98640, 611548285.712300, 0.003404, 0.000394, 0.001266, 0.000102, 0.000227
98642, 611548299.648700, 0.003251, 0.000164, 0.001205, 0.000103, 0.000232
98646, 611548319.531800, 0.003326, 0.000389, 0.001253, 0.000103, 0.000234
98650, 611548340.136400, 0.003407, 0.000324, 0.001201, 0.000100, 0.000230
98654, 611548357.275200, 0.003410, 0.000392, 0.001388, 0.000100, 0.000230
98658, 611548377.454700, 0.003239, 0.000196, 0.001315, 0.000116, 0.000230
98662, 611548397.916300, 0.003224, 0.000160, 0.001207, 0.000104, 0.000235
98666, 611548418.638900, 0.003368, 0.000383, 0.001243, 0.000104, 0.000215
98670, 611548438.839700, 0.003392, 0.000411, 0.001302, 0.000098, 0.000215
98674, 611548458.602300, 0.003199, 0.000138, 0.001210, 0.000107, 0.000190
98678, 611548478.509800, 0.003181, 0.000165, 0.001224, 0.000106, 0.000161
98682, 611548497.992500, 0.003415, 0.000310, 0.001211, 0.000099, 0.000162
98686, 611548518.284300, 0.003416, 0.000369, 0.001350, 0.000090, 0.000204
98690, 611548538.585500, 0.003284, 0.000182, 0.001377, 0.000116, 0.000202
98694, 611548559.008500, 0.003325, 0.000417, 0.001524, 0.000120, 0.000178
98698, 611548579.012400, 0.003230, 0.000151, 0.001315, 0.000114, 0.000179
98702, 611548599.423600, 0.003382, 0.000384, 0.001360, 0.000113, 0.000184
98706, 611548619.598700, 0.003237, 0.000196, 0.001429, 0.000118, 0.000183
98710, 611548640.067900, 0.003259, 0.000158, 0.001317, 0.000101, 0.000166
98714, 611548657.155500, 0.003237, 0.000211, 0.001785, 0.000127, 0.000184
98718, 611548677.594100, 0.003246, 0.000192, 0.001587, 0.000118, 0.000202
98722, 611548697.583200, 0.003232, 0.000174, 0.001444, 0.000108, 0.000231
98726, 611548717.425300, 0.003405, 0.000365, 0.001466, 0.000105, 0.000229
98730, 611548738.160600, 0.003181, 0.000176, 0.001287, 0.000114, 0.000229
98734, 611548758.037700, 0.003356, 0.000413, 0.001321, 0.000104, 0.000230
98738, 611548777.924900, 0.003232, 0.000173, 0.001539, 0.000115, 0.000209
98742, 611548798.449200, 0.003369, 0.000381, 0.001680, 0.000115, 0.000204
98746, 611548818.960800, 0.003288, 0.000189, 0.001518, 0.000176, 0.000205
98751, 611548840.760100, 0.003380, 0.000434, 0.001276, 0.000114, 0.000203
98754, 611548858.624600, 0.003369, 0.000382, 0.001323, 0.000105, 0.000207
98759, 611548879.966400, 0.003170, 0.000163, 0.001311, 0.000108, 0.000205
98762, 611548897.502900, 0.003230, 0.000166, 0.001340, 0.000108, 0.000207
98766, 611548918.127100, 0.003224, 0.000162, 0.001336, 0.000106, 0.000165
98770, 611548939.395400, 0.003281, 0.000161, 0.001278, 0.000115, 0.000170
98774, 611548957.554100, 0.003232, 0.000161, 0.001323, 0.000115, 0.000171
98778, 611548979.273200, 0.003232, 0.000190, 0.001501, 0.000123, 0.000167
98783, 611549000.333500, 0.003233, 0.000163, 0.001316, 0.000115, 0.000164
98786, 611549017.266300, 0.003281, 0.000151, 0.001331, 0.000107, 0.000172
98790, 611549037.770400, 0.003274, 0.000174, 0.001463, 0.000102, 0.000174
98794, 611549058.462700, 0.003255, 0.000186, 0.001620, 0.000119, 0.000153
98798, 611549078.694900, 0.003357, 0.000176, 0.001517, 0.000115, 0.000134
98802, 611549098.945100, 0.003376, 0.000387, 0.001550, 0.000116, 0.000102
98807, 611549119.183200, 0.003236, 0.000142, 0.001295, 0.000105, 0.000100
98810, 611549139.286000, 0.003225, 0.000137, 0.001283, 0.000112, 0.000099
98814, 611549159.691600, 0.003360, 0.000380, 0.001713, 0.000114, 0.000099
98818, 611549176.858700, 0.003221, 0.000146, 0.001232, 0.000103, 0.000098
98822, 611549197.295600, 0.003414, 0.000409, 0.001431, 0.000104, 0.000116
98826, 611549217.189400, 0.003235, 0.000158, 0.001301, 0.000109, 0.000129
98830, 611549238.156500, 0.003401, 0.000397, 0.001466, 0.000109, 0.000150
98834, 611549258.976000, 0.003408, 0.000406, 0.001771, 0.000117, 0.000146
98838, 611549280.047600, 0.003240, 0.000161, 0.001262, 0.000114, 0.000148
98842, 611549297.260500, 0.003235, 0.000158, 0.001246, 0.000114, 0.000145
98846, 611549318.477700, 0.003356, 0.000373, 0.001444, 0.000108, 0.000165
98850, 611549338.964000, 0.003406, 0.000379, 0.001337, 0.000109, 0.000162
98855, 611549359.829400, 0.003242, 0.000208, 0.001549, 0.000120, 0.000161
98858, 611549377.296600, 0.003215, 0.000177, 0.001345, 0.000127, 0.000177
98862, 611549397.691300, 0.003213, 0.000153, 0.001260, 0.000109, 0.000176
98866, 611549418.911600, 0.003418, 0.000393, 0.001499, 0.000112, 0.000169
98871, 611549439.905500, 0.003229, 0.000163, 0.001329, 0.000109, 0.000167
98874, 611549457.423400, 0.003176, 0.000169, 0.001268, 0.000119, 0.000169
98878, 611549478.090000, 0.003246, 0.000174, 0.001356, 0.000119, 0.000175
98882, 611549498.717600, 0.003230, 0.000160, 0.001372, 0.000113, 0.000173
98886, 611549518.943200, 0.003383, 0.000418, 0.001374, 0.000111, 0.000173
98890, 611549539.189200, 0.003229, 0.000163, 0.001289, 0.000117, 0.000173
98895, 611549559.653400, 0.003329, 0.000392, 0.001443, 0.000105, 0.000172
98899, 611549579.785100, 0.003226, 0.000143, 0.001241, 0.000108, 0.000173
98903, 611549600.104400, 0.003282, 0.000176, 0.001481, 0.000118, 0.000204
98906, 611549617.255500, 0.003180, 0.000168, 0.001345, 0.000118, 0.000191
98910, 611549638.109300, 0.003393, 0.000402, 0.001516, 0.000116, 0.000172
98914, 611549659.039600, 0.003224, 0.000154, 0.001263, 0.000109, 0.000190
98918, 611549676.832800, 0.003375, 0.000577, 0.001455, 0.000126, 0.000189
98922, 611549697.557300, 0.003222, 0.000167, 0.001284, 0.000120, 0.000188
98926, 611549717.966100, 0.003270, 0.000168, 0.001274, 0.000108, 0.000205
98930, 611549738.738400, 0.003358, 0.000360, 0.001348, 0.000108, 0.000205
98934, 611549758.931300, 0.003382, 0.000379, 0.001352, 0.000106, 0.000204
98938, 611549778.898800, 0.003228, 0.000172, 0.001406, 0.000130, 0.000191
98943, 611549799.477300, 0.003402, 0.000381, 0.001315, 0.000101, 0.000191
98947, 611549820.046100, 0.003409, 0.000346, 0.001295, 0.000106, 0.000215
98950, 611549837.687300, 0.003327, 0.000368, 0.001427, 0.000102, 0.000215
98954, 611549858.354200, 0.003181, 0.000156, 0.001255, 0.000111, 0.000217
98958, 611549877.758000, 0.003236, 0.000182, 0.001578, 0.000119, 0.000210
98962, 611549898.025100, 0.003220, 0.000163, 0.001226, 0.000113, 0.000237
98966, 611549918.378400, 0.003423, 0.000362, 0.001221, 0.000103, 0.000240
98970, 611549938.911400, 0.003235, 0.000166, 0.001333, 0.000114, 0.000240
98974, 611549958.847500, 0.003404, 0.000367, 0.001531, 0.000097, 0.000241
98980, 611549985.992600, 0.003283, 0.000150, 0.001334, 0.000109, 0.000241
98982, 611549999.330100, 0.003367, 0.000363, 0.001478, 0.000103, 0.000193
98986, 611550019.466600, 0.003262, 0.000156, 0.001366, 0.000108, 0.000194
98991, 611550039.864400, 0.003243, 0.000163, 0.001398, 0.000114, 0.000194
98994, 611550059.831600, 0.003358, 0.000407, 0.001344, 0.000092, 0.000178
98998, 611550080.088500, 0.003236, 0.000172, 0.001380, 0.000115, 0.000176
99002, 611550097.475500, 0.003258, 0.000154, 0.001354, 0.000111, 0.000177
99006, 611550117.655900, 0.003356, 0.000382, 0.001392, 0.000104, 0.000141
99010, 611550138.341300, 0.003368, 0.000424, 0.001483, 0.000104, 0.000139
99014, 611550158.916100, 0.003298, 0.000152, 0.001278, 0.000099, 0.000140
99018, 611550178.884800, 0.003251, 0.000178, 0.001424, 0.000112, 0.000139
99022, 611550199.037100, 0.003322, 0.000395, 0.001533, 0.000122, 0.000140
99026, 611550219.275000, 0.003332, 0.000373, 0.001476, 0.000098, 0.000115
99029, 611550239.848700, 0.003184, 0.000148, 0.001264, 0.000098, 0.000115
99034, 611550256.910800, 0.003207, 0.000160, 0.001652, 0.000176, 0.000112
99038, 611550279.932300, 0.003283, 0.000197, 0.001337, 0.000119, 0.000142
99043, 611550300.139500, 0.003228, 0.000184, 0.001277, 0.000105, 0.000115
99046, 611550320.083800, 0.003230, 0.000160, 0.001244, 0.000099, 0.000116
99050, 611550340.295600, 0.003225, 0.000169, 0.001303, 0.000104, 0.000117
99054, 611550357.892700, 0.003296, 0.000148, 0.001181, 0.000096, 0.000116
99058, 611550378.085100, 0.003232, 0.000181, 0.001387, 0.000123, 0.000116
99062, 611550397.590300, 0.003302, 0.000393, 0.001172, 0.000098, 0.000114
99066, 611550417.684000, 0.003369, 0.000335, 0.001396, 0.000094, 0.000112
99070, 611550437.579600, 0.003415, 0.000359, 0.001215, 0.000094, 0.000110
99074, 611550457.242200, 0.003301, 0.000158, 0.001183, 0.000099, 0.000109
99079, 611550479.883400, 0.003228, 0.000211, 0.001380, 0.000133, 0.000109
99083, 611550499.300600, 0.003260, 0.000178, 0.001386, 0.000120, 0.000109
99086, 611550518.591900, 0.003232, 0.000159, 0.001221, 0.000103, 0.000108
99090, 611550538.145800, 0.003275, 0.000167, 0.001201, 0.000104, 0.000109
99094, 611550558.420800, 0.003399, 0.000418, 0.001253, 0.000094, 0.000109
99098, 611550577.617200, 0.003238, 0.000153, 0.001136, 0.000105, 0.000106
99102, 611550597.186300, 0.003846, 0.000281, 0.001265, 0.000116, 0.000107
99107, 611550619.892700, 0.003256, 0.000148, 0.001187, 0.000097, 0.000107
99111, 611550639.012800, 0.003280, 0.000140, 0.001114, 0.000099, 0.000107
99114, 611550658.493700, 0.003410, 0.000388, 0.001207, 0.000099, 0.000107
99118, 611550678.811400, 0.003250, 0.000221, 0.001398, 0.000124, 0.000077
99122, 611550698.328800, 0.003262, 0.000161, 0.001218, 0.000102, 0.000078
99126, 611550717.699500, 0.003285, 0.000174, 0.001215, 0.000109, 0.000076
99130, 611550737.197600, 0.003315, 0.000371, 0.001420, 0.000095, 0.000075
99134, 611550756.839900, 0.003358, 0.000376, 0.001361, 0.000091, 0.000075
99138, 611550779.220100, 0.003394, 0.000375, 0.001312, 0.000092, 0.000075
99142, 611550798.764800, 0.003446, 0.000372, 0.001249, 0.000094, 0.000075
99146, 611550818.422100, 0.003421, 0.000377, 0.001292, 0.000097, 0.000076
99150, 611550837.774200, 0.003247, 0.000145, 0.001153, 0.000096, 0.000076
99154, 611550857.161900, 0.003371, 0.000325, 0.001156, 0.000094, 0.000077
99159, 611550879.524500, 0.003247, 0.000189, 0.001329, 0.000127, 0.000077
99162, 611550898.752000, 0.003275, 0.000169, 0.001317, 0.000112, 0.000078
99166, 611550918.017100, 0.003275, 0.000157, 0.001279, 0.000099, 0.000078
99170, 611550937.752600, 0.003273, 0.000172, 0.001244, 0.000104, 0.000077
99174, 611550956.987300, 0.003255, 0.000180, 0.001394, 0.000111, 0.000077
99179, 611550979.790800, 0.003246, 0.000149, 0.001194, 0.000112, 0.000079
99182, 611550998.959900, 0.003248, 0.000179, 0.001254, 0.000112, 0.000080
99187, 611551019.120500, 0.003233, 0.000157, 0.001227, 0.000101, 0.000080
99190, 611551038.660200, 0.003308, 0.000174, 0.001283, 0.000110, 0.000082
99194, 611551058.249100, 0.003235, 0.000154, 0.001236, 0.000108, 0.000083
99198, 611551079.360700, 0.003244, 0.000304, 0.001331, 0.000109, 0.000082
99203, 611551099.715800, 0.003211, 0.000152, 0.001272, 0.000100, 0.000082
99207, 611551122.234300, 0.003189, 0.000147, 0.001236, 0.000108, 0.000082
99210, 611551137.245800, 0.003200, 0.000153, 0.001196, 0.000098, 0.000082
99214, 611551157.563400, 0.003303, 0.000149, 0.001227, 0.000108, 0.000083
99218, 611551177.703400, 0.003243, 0.000142, 0.001344, 0.000100, 0.000082
99222, 611551197.140100, 0.003395, 0.000374, 0.001337, 0.000106, 0.000083
99226, 611551217.242400, 0.003400, 0.000437, 0.001492, 0.000109, 0.000083
99230, 611551237.495200, 0.003256, 0.000169, 0.001362, 0.000108, 0.000082
99234, 611551257.420600, 0.003233, 0.000171, 0.001327, 0.000120, 0.000082
99238, 611551277.510000, 0.003243, 0.000167, 0.001431, 0.000200, 0.000084
99242, 611551297.033300, 0.003386, 0.000332, 0.001226, 0.000108, 0.000083
99247, 611551319.565200, 0.003374, 0.000364, 0.001258, 0.000099, 0.000082
99250, 611551338.883900, 0.003430, 0.000386, 0.001231, 0.000103, 0.000082
99254, 611551358.857600, 0.003381, 0.000392, 0.001284, 0.000097, 0.000083
99258, 611551378.718800, 0.003242, 0.000162, 0.001263, 0.000116, 0.000081
99262, 611551398.215000, 0.003449, 0.000394, 0.001175, 0.000097, 0.000080
99266, 611551417.893200, 0.003413, 0.000324, 0.001191, 0.000103, 0.000079
99270, 611551437.492400, 0.003470, 0.000416, 0.001291, 0.000102, 0.000080
99274, 611551458.335800, 0.003442, 0.000391, 0.001371, 0.000100, 0.000078
99278, 611551479.250100, 0.003226, 0.000166, 0.001316, 0.000105, 0.000081
99282, 611551498.404000, 0.003393, 0.000388, 0.001424, 0.000098, 0.000080
99286, 611551517.668800, 0.003374, 0.000400, 0.001445, 0.000092, 0.000079
99291, 611551540.007800, 0.003255, 0.000213, 0.001623, 0.000142, 0.000081
99294, 611551559.066500, 0.003235, 0.000209, 0.001571, 0.000126, 0.000082
99300, 611551585.655900, 0.003235, 0.000185, 0.001436, 0.000101, 0.000083
99302, 611551598.895900, 0.003214, 0.000202, 0.001305, 0.000115, 0.000083
99306, 611551618.179300, 0.003369, 0.000392, 0.001348, 0.000107, 0.000083
99310, 611551637.577500, 0.003379, 0.000392, 0.001432, 0.000098, 0.000083
99314, 611551657.318500, 0.003178, 0.000154, 0.001295, 0.000100, 0.000082
99318, 611551677.844900, 0.003172, 0.000142, 0.001175, 0.000101, 0.000082
99322, 611551697.352500, 0.003357, 0.000386, 0.001345, 0.000114, 0.000081
99326, 611551717.413100, 0.003410, 0.000401, 0.001316, 0.000098, 0.000083
99330, 611551738.919000, 0.003217, 0.000154, 0.001292, 0.000099, 0.000083
99334, 611551758.864100, 0.003358, 0.000380, 0.001271, 0.000099, 0.000084
99338, 611551778.294600, 0.003230, 0.000156, 0.001235, 0.000108, 0.000084
99342, 611551797.847200, 0.003409, 0.000395, 0.001282, 0.000101, 0.000084
99346, 611551817.749600, 0.003249, 0.000163, 0.001264, 0.000109, 0.000086
99350, 611551837.693100, 0.003215, 0.000141, 0.001212, 0.000098, 0.000086
99354, 611551857.519500, 0.003221, 0.000169, 0.001354, 0.000126, 0.000087
99358, 611551877.204100, 0.003235, 0.000166, 0.001364, 0.000110, 0.000084
99362, 611551896.894400, 0.003276, 0.000164, 0.001263, 0.000105, 0.000084
99367, 611551919.676700, 0.003229, 0.000149, 0.001237, 0.000104, 0.000086
99370, 611551939.275700, 0.003418, 0.000382, 0.001365, 0.000110, 0.000085
99374, 611551958.903000, 0.003349, 0.000388, 0.001451, 0.000110, 0.000084
99378, 611551978.490200, 0.003227, 0.000168, 0.001341, 0.000122, 0.000083
99382, 611551997.968300, 0.003252, 0.000191, 0.001706, 0.000146, 0.000084
99386, 611552017.576800, 0.003247, 0.000179, 0.001577, 0.000113, 0.000084
99390, 611552037.232300, 0.003413, 0.000397, 0.001408, 0.000103, 0.000083
99394, 611552057.037800, 0.003229, 0.000149, 0.001321, 0.000104, 0.000085
99399, 611552079.769100, 0.003367, 0.000378, 0.001558, 0.000103, 0.000085
99403, 611552100.506000, 0.003412, 0.000363, 0.001326, 0.000114, 0.000086
99407, 611552120.075400, 0.003370, 0.000375, 0.001279, 0.000118, 0.000092
99410, 611552137.393800, 0.003399, 0.000369, 0.001365, 0.000107, 0.000093
99414, 611552157.197100, 0.003306, 0.000156, 0.001291, 0.000102, 0.000094
99418, 611552177.738000, 0.003258, 0.000171, 0.001470, 0.000145, 0.000095
99422, 611552198.019800, 0.003474, 0.000418, 0.001358, 0.000121, 0.000095
99426, 611552218.676900, 0.003320, 0.000167, 0.001216, 0.000102, 0.000096
99430, 611552239.518700, 0.003354, 0.000419, 0.001463, 0.000108, 0.000094
99435, 611552259.602200, 0.003266, 0.000175, 0.001229, 0.000113, 0.000094
99438, 611552277.940500, 0.003232, 0.000154, 0.001208, 0.000107, 0.000095
99443, 611552299.951400, 0.003359, 0.000395, 0.001679, 0.000123, 0.000095
99446, 611552316.857800, 0.003304, 0.000160, 0.001482, 0.000171, 0.000094
99450, 611552336.844500, 0.003503, 0.000384, 0.001267, 0.000108, 0.000094
99454, 611552357.044900, 0.003260, 0.000177, 0.001511, 0.000121, 0.000094
99459, 611552379.909100, 0.003359, 0.000398, 0.001500, 0.000113, 0.000096
99463, 611552399.852700, 0.003274, 0.000174, 0.001441, 0.000117, 0.000096
99466, 611552419.362200, 0.003286, 0.000157, 0.001314, 0.000104, 0.000098
99470, 611552439.350200, 0.003377, 0.000385, 0.001530, 0.000104, 0.000098
99474, 611552458.957900, 0.003360, 0.000478, 0.001347, 0.000103, 0.000097
99478, 611552478.043000, 0.003210, 0.000151, 0.001479, 0.000105, 0.000097
99482, 611552497.938800, 0.003372, 0.000382, 0.001443, 0.000109, 0.000096
99486, 611552517.736300, 0.003277, 0.000163, 0.001274, 0.000106, 0.000089
99490, 611552537.451200, 0.003254, 0.000161, 0.001258, 0.000113, 0.000088
99495, 611552560.289800, 0.003369, 0.000406, 0.001422, 0.000109, 0.000085
99498, 611552577.189900, 0.003237, 0.000165, 0.001376, 0.000117, 0.000086
99502, 611552597.108700, 0.003402, 0.000384, 0.001323, 0.000099, 0.000087
99507, 611552619.395900, 0.003248, 0.000152, 0.001400, 0.000102, 0.000086
99510, 611552638.755200, 0.003389, 0.000368, 0.001273, 0.000118, 0.000086
99514, 611552658.181300, 0.003581, 0.000376, 0.001429, 0.000100, 0.000086
99518, 611552677.670500, 0.003091, 0.000166, 0.001343, 0.000111, 0.000085
99522, 611552697.023700, 0.003366, 0.000392, 0.001370, 0.000109, 0.000084
99527, 611552719.674600, 0.003362, 0.000367, 0.001453, 0.000104, 0.000084
99530, 611552739.096300, 0.003405, 0.000384, 0.001463, 0.000099, 0.000084
99534, 611552758.386200, 0.003422, 0.000376, 0.001373, 0.000108, 0.000085
99538, 611552778.146700, 0.003212, 0.000158, 0.001370, 0.000106, 0.000085
99542, 611552797.745900, 0.003415, 0.000397, 0.001374, 0.000105, 0.000084
99546, 611552817.377200, 0.003480, 0.000395, 0.001341, 0.000112, 0.000082
99550, 611552836.998600, 0.003403, 0.000403, 0.001470, 0.000112, 0.000083
99555, 611552859.887000, 0.003383, 0.000395, 0.001475, 0.000111, 0.000083
99558, 611552879.112100, 0.003214, 0.000162, 0.001347, 0.000114, 0.000081
99562, 611552898.408400, 0.003400, 0.000529, 0.001332, 0.000106, 0.000082
99566, 611552917.830200, 0.003333, 0.000374, 0.001522, 0.000112, 0.000082
99570, 611552937.396300, 0.003398, 0.000361, 0.001376, 0.000098, 0.000084
99574, 611552957.071600, 0.003357, 0.000384, 0.001527, 0.000108, 0.000085
99579, 611552979.693100, 0.003274, 0.000143, 0.001235, 0.000101, 0.000084
99582, 611552999.306700, 0.003244, 0.000152, 0.001223, 0.000108, 0.000083
99587, 611553019.403100, 0.003244, 0.000175, 0.001329, 0.000106, 0.000082
99590, 611553038.703200, 0.003234, 0.000163, 0.001400, 0.000129, 0.000084
99594, 611553058.087900, 0.003287, 0.000156, 0.001332, 0.000106, 0.000085
99598, 611553077.492100, 0.003377, 0.000385, 0.001547, 0.000107, 0.000085
99602, 611553097.378000, 0.003417, 0.000368, 0.001427, 0.000110, 0.000087
99607, 611553119.948900, 0.003356, 0.000392, 0.001353, 0.000105, 0.000087
99610, 611553137.009600, 0.003294, 0.000151, 0.001212, 0.000108, 0.000084
99615, 611553159.450300, 0.003375, 0.000390, 0.001303, 0.000103, 0.000085
99618, 611553178.738300, 0.003239, 0.000160, 0.001410, 0.000115, 0.000084
99622, 611553198.186600, 0.003193, 0.000151, 0.001234, 0.000110, 0.000086
99626, 611553217.759500, 0.003352, 0.000384, 0.001483, 0.000112, 0.000087
99630, 611553237.379500, 0.003321, 0.000400, 0.001334, 0.000105, 0.000087
99634, 611553257.195000, 0.003406, 0.000371, 0.001297, 0.000108, 0.000088
99639, 611553279.483100, 0.003302, 0.000180, 0.001313, 0.000104, 0.000088
99642, 611553298.716500, 0.003392, 0.000381, 0.001439, 0.000110, 0.000088
99646, 611553317.835200, 0.003376, 0.000427, 0.001540, 0.000102, 0.000089
99650, 611553337.575000, 0.003298, 0.000153, 0.001253, 0.000105, 0.000087
99654, 611553357.089500, 0.003320, 0.000372, 0.001442, 0.000106, 0.000089
99659, 611553379.712500, 0.003367, 0.000386, 0.001355, 0.000109, 0.000090
99663, 611553399.463800, 0.003422, 0.000381, 0.001339, 0.000104, 0.000091
99666, 611553419.007000, 0.003226, 0.000154, 0.001230, 0.000103, 0.000090
99670, 611553438.666100, 0.003395, 0.000383, 0.001449, 0.000103, 0.000089
99674, 611553457.684900, 0.003222, 0.000166, 0.001433, 0.000115, 0.000088
99678, 611553477.116500, 0.003239, 0.000146, 0.001281, 0.000112, 0.000088
99683, 611553499.368900, 0.003247, 0.000175, 0.001308, 0.000115, 0.000086
99686, 611553518.911400, 0.003290, 0.000156, 0.001254, 0.000116, 0.000089
99690, 611553538.640100, 0.003352, 0.000387, 0.001420, 0.000104, 0.000090
99695, 611553562.176100, 0.003348, 0.000371, 0.001550, 0.000110, 0.000088
99698, 611553578.807500, 0.003372, 0.000382, 0.001565, 0.000109, 0.000088
99702, 611553598.418500, 0.003398, 0.000394, 0.001445, 0.000107, 0.000087
99706, 611553618.073600, 0.003402, 0.000465, 0.001288, 0.000104, 0.000087
99710, 611553637.287200, 0.003295, 0.000163, 0.001301, 0.000117, 0.000085
99715, 611553660.769200, 0.003263, 0.000154, 0.001311, 0.000111, 0.000083
99718, 611553677.187000, 0.003243, 0.000169, 0.001325, 0.000123, 0.000084
99723, 611553699.771400, 0.003365, 0.000375, 0.001470, 0.000103, 0.000084
99726, 611553719.545500, 0.003225, 0.000149, 0.001467, 0.000114, 0.000083
99731, 611553739.309900, 0.003226, 0.000162, 0.001415, 0.000122, 0.000084
99734, 611553758.576400, 0.003406, 0.000408, 0.001398, 0.000100, 0.000083
99738, 611553778.165100, 0.003349, 0.000197, 0.001601, 0.000122, 0.000082
99742, 611553797.502500, 0.003372, 0.000411, 0.001426, 0.000108, 0.000080
99746, 611553817.804900, 0.003227, 0.000194, 0.004139, 0.000129, 0.000081
99750, 611553837.949600, 0.003221, 0.000191, 0.001370, 0.000157, 0.000090
99754, 611553857.787700, 0.003274, 0.000155, 0.001326, 0.000098, 0.000090
99758, 611553877.371700, 0.003230, 0.000153, 0.001212, 0.000098, 0.000090
99762, 611553896.976200, 0.003248, 0.000150, 0.001191, 0.000100, 0.000090
99767, 611553919.759300, 0.003269, 0.000152, 0.001157, 0.000104, 0.000088
99771, 611553939.407600, 0.003223, 0.000154, 0.001276, 0.000120, 0.000088
99774, 611553958.734900, 0.003284, 0.000159, 0.001208, 0.000099, 0.000088
99778, 611553978.289000, 0.003230, 0.000155, 0.001359, 0.000103, 0.000087
99782, 611553997.793700, 0.003398, 0.000377, 0.001266, 0.000106, 0.000087
99786, 611554016.918800, 0.003311, 0.000166, 0.001143, 0.000095, 0.000088
99791, 611554039.952000, 0.003223, 0.000190, 0.001679, 0.000121, 0.000088
99794, 611554056.840700, 0.003230, 0.000167, 0.001210, 0.000112, 0.000089
99798, 611554077.519600, 0.003226, 0.000153, 0.001400, 0.000103, 0.000087
99802, 611554097.604600, 0.003274, 0.000148, 0.001168, 0.000097, 0.000087
99806, 611554117.077200, 0.003364, 0.000396, 0.001397, 0.000091, 0.000087
99811, 611554139.597200, 0.003332, 0.000371, 0.001439, 0.000095, 0.000088
99814, 611554158.903500, 0.003279, 0.000158, 0.001159, 0.000108, 0.000088
99818, 611554178.064700, 0.003268, 0.000181, 0.001456, 0.000189, 0.000090
99822, 611554198.046000, 0.003407, 0.000381, 0.001408, 0.000100, 0.000092
99826, 611554217.796900, 0.003280, 0.000424, 0.001341, 0.000098, 0.000094
99830, 611554237.936000, 0.003237, 0.000164, 0.001421, 0.000120, 0.000083
99834, 611554257.743600, 0.003236, 0.000157, 0.001256, 0.000102, 0.000084
99838, 611554277.432800, 0.003372, 0.000403, 0.001326, 0.000107, 0.000085
99842, 611554297.414300, 0.003280, 0.000182, 0.001269, 0.000113, 0.000088
99846, 611554317.417800, 0.003345, 0.000156, 0.001185, 0.000097, 0.000088
99850, 611554337.722900, 0.003413, 0.000410, 0.001421, 0.000099, 0.000088
99854, 611554357.497200, 0.003228, 0.000152, 0.001250, 0.000099, 0.000088
99858, 611554377.038200, 0.003238, 0.000163, 0.001221, 0.000118, 0.000087
99863, 611554399.783600, 0.003356, 0.000360, 0.001374, 0.000100, 0.000088
99866, 611554419.214300, 0.003343, 0.000381, 0.001372, 0.000105, 0.000089
99870, 611554438.618100, 0.003226, 0.000167, 0.001299, 0.000111, 0.000091
99874, 611554457.923300, 0.003289, 0.000215, 0.001574, 0.000132, 0.000093
99878, 611554477.455700, 0.003233, 0.000190, 0.001532, 0.000118, 0.000093
99883, 611554499.789600, 0.003213, 0.000168, 0.001492, 0.000121, 0.000093
99886, 611554519.237200, 0.003154, 0.000162, 0.001380, 0.000201, 0.000095
99891, 611554539.367000, 0.003220, 0.000158, 0.001328, 0.000122, 0.000095
99895, 611554559.555200, 0.003261, 0.000192, 0.001473, 0.000112, 0.000095
99899, 611554579.254800, 0.003229, 0.000176, 0.001297, 0.000111, 0.000093
99903, 611554599.566000, 0.003242, 0.000165, 0.001338, 0.000124, 0.000091
99907, 611554619.435700, 0.003291, 0.000160, 0.001176, 0.000101, 0.000089
99910, 611554639.137000, 0.003352, 0.000375, 0.001458, 0.000100, 0.000091
99916, 611554663.983000, 0.003208, 0.000156, 0.001133, 0.000103, 0.000091
99918, 611554677.213800, 0.003250, 0.000158, 0.001244, 0.000117, 0.000090
99922, 611554696.827500, 0.003228, 0.000166, 0.001220, 0.000102, 0.000088
99926, 611554718.189700, 0.003248, 0.000216, 0.001612, 0.000135, 0.000088
99930, 611554737.778300, 0.003253, 0.000229, 0.001544, 0.000130, 0.000088
99934, 611554757.511400, 0.003236, 0.000187, 0.001519, 0.000126, 0.000089
99938, 611554776.958600, 0.003186, 0.000141, 0.001353, 0.000110, 0.000091
99942, 611554797.250600, 0.003219, 0.000152, 0.001253, 0.000110, 0.000091
99946, 611554817.418400, 0.003379, 0.000384, 0.001620, 0.000122, 0.000088
99950, 611554837.478100, 0.003293, 0.000200, 0.001442, 0.000124, 0.000088
99954, 611554857.806400, 0.003374, 0.000400, 0.001542, 0.000103, 0.000088
99958, 611554878.619800, 0.003247, 0.000168, 0.001306, 0.000112, 0.000089
99963, 611554899.982800, 0.003583, 0.000139, 0.001194, 0.000101, 0.000089
99966, 611554917.736000, 0.003416, 0.000384, 0.001362, 0.000095, 0.000088
99970, 611554938.218700, 0.003290, 0.000136, 0.001202, 0.000100, 0.000087
99974, 611554959.088900, 0.003268, 0.000148, 0.001267, 0.000102, 0.000085
99978, 611554978.868400, 0.003246, 0.000170, 0.001186, 0.000100, 0.000085
99983, 611555000.614500, 0.003480, 0.000452, 0.001837, 0.000117, 0.000084
99986, 611555017.540100, 0.003448, 0.000384, 0.001447, 0.000103, 0.000085
99990, 611555037.009800, 0.003220, 0.000161, 0.001278, 0.000104, 0.000085
99995, 611555059.925500, 0.003346, 0.000374, 0.001348, 0.000099, 0.000084
99999, 611555080.656100, 0.003248, 0.000159, 0.001322, 0.000113, 0.000084
100002, 611555097.587600, 0.003424, 0.000439, 0.001455, 0.000101, 0.000083
100006, 611555116.963700, 0.003218, 0.000165, 0.001294, 0.000122, 0.000083
100011, 611555139.422500, 0.003317, 0.000364, 0.001416, 0.000108, 0.000082
100014, 611555158.821400, 0.003413, 0.000381, 0.001276, 0.000100, 0.000082
100018, 611555178.592200, 0.003181, 0.000153, 0.001173, 0.000103, 0.000081
100022, 611555198.170500, 0.003252, 0.000157, 0.001214, 0.000102, 0.000081
100026, 611555217.672700, 0.003250, 0.000173, 0.001241, 0.000101, 0.000081
100030, 611555237.928100, 0.003357, 0.000399, 0.001428, 0.000098, 0.000078
100034, 611555257.811000, 0.003373, 0.000383, 0.001309, 0.000113, 0.000077
100038, 611555277.762200, 0.003187, 0.000155, 0.001198, 0.000102, 0.000075
100042, 611555298.412900, 0.003339, 0.000153, 0.001244, 0.000100, 0.000075
100046, 611555318.330200, 0.003373, 0.000376, 0.001360, 0.000093, 0.000078
100052, 611555344.730900, 0.003248, 0.000156, 0.001331, 0.000116, 0.000079
100054, 611555358.546200, 0.003238, 0.000166, 0.002353, 0.000124, 0.000079
100058, 611555378.615700, 0.003229, 0.000161, 0.001502, 0.000112, 0.000079
100062, 611555398.263300, 0.003259, 0.000157, 0.001332, 0.000110, 0.000079
100066, 611555417.406500, 0.003230, 0.000151, 0.001296, 0.000109, 0.000079
100070, 611555437.360700, 0.003222, 0.000191, 0.001482, 0.000110, 0.000078
100074, 611555457.338700, 0.003208, 0.000162, 0.001438, 0.000106, 0.000079
100079, 611555479.846500, 0.003231, 0.000161, 0.001373, 0.000132, 0.000079
100082, 611555498.886900, 0.003228, 0.000153, 0.001303, 0.000119, 0.000086
100086, 611555518.130600, 0.003240, 0.000189, 0.001385, 0.000126, 0.000087
100090, 611555537.312300, 0.003271, 0.000156, 0.001357, 0.000110, 0.000087
100094, 611555557.648000, 0.003231, 0.000158, 0.001422, 0.000113, 0.000086
100099, 611555579.748900, 0.003351, 0.000436, 0.001560, 0.000111, 0.000088
100102, 611555598.854000, 0.003367, 0.000375, 0.001436, 0.000102, 0.000091
100106, 611555618.058100, 0.003407, 0.000395, 0.001795, 0.000134, 0.000092
100110, 611555637.279900, 0.003280, 0.000158, 0.001281, 0.000105, 0.000093
100114, 611555657.793000, 0.003314, 0.000382, 0.001310, 0.000107, 0.000112
100118, 611555677.177100, 0.003223, 0.000158, 0.001413, 0.000113, 0.000112
100122, 611555699.704600, 0.003505, 0.000372, 0.001426, 0.000110, 0.000115
100126, 611555719.158000, 0.003359, 0.000394, 0.001474, 0.000104, 0.000110
100131, 611555739.163500, 0.003271, 0.000153, 0.001382, 0.000111, 0.000111
100134, 611555758.316200, 0.003329, 0.000159, 0.001360, 0.000107, 0.000112
100138, 611555777.157500, 0.003223, 0.000147, 0.001327, 0.000097, 0.000114
100143, 611555799.204900, 0.003224, 0.000147, 0.001401, 0.000113, 0.000115
100146, 611555818.485100, 0.003255, 0.000153, 0.001274, 0.000105, 0.000116
100150, 611555837.619100, 0.003225, 0.000155, 0.001378, 0.000115, 0.000118
100155, 611555859.986600, 0.003352, 0.000365, 0.001335, 0.000107, 0.000119
100159, 611555879.554900, 0.003364, 0.000354, 0.001499, 0.000103, 0.000120
100162, 611555898.970200, 0.003355, 0.000400, 0.001430, 0.000103, 0.000113
100166, 611555918.568200, 0.003283, 0.000153, 0.001283, 0.000104, 0.000114
100170, 611555937.947500, 0.003410, 0.000372, 0.001290, 0.000104, 0.000116
100174, 611555957.137500, 0.003250, 0.000153, 0.001257, 0.000103, 0.000116
100179, 611555979.813600, 0.003296, 0.000161, 0.001288, 0.000113, 0.000116
100182, 611555997.723800, 0.003167, 0.000159, 0.001266, 0.000110, 0.000115
100187, 611556019.644800, 0.003251, 0.000158, 0.001241, 0.000105, 0.000117
100191, 611556039.200800, 0.003247, 0.000157, 0.001411, 0.000120, 0.000116
100194, 611556058.811600, 0.003364, 0.000403, 0.001377, 0.000104, 0.000098
100198, 611556077.987200, 0.003340, 0.000383, 0.001599, 0.000113, 0.000099
100202, 611556097.511900, 0.003249, 0.000247, 0.001421, 0.000110, 0.000097
100206, 611556116.826500, 0.003301, 0.000167, 0.001374, 0.000110, 0.000099
100211, 611556139.557200, 0.003415, 0.000155, 0.001476, 0.000121, 0.000097
100214, 611556158.981300, 0.003242, 0.000155, 0.001204, 0.000099, 0.000096
100218, 611556178.518600, 0.003237, 0.000160, 0.001411, 0.000107, 0.000095
100222, 611556197.322300, 0.003593, 0.000345, 0.001246, 0.000116, 0.000095
100227, 611556220.042200, 0.003326, 0.000201, 0.001254, 0.000107, 0.000094
100231, 611556239.760900, 0.003429, 0.000384, 0.001542, 0.000122, 0.000092
100235, 611556259.500400, 0.003264, 0.000153, 0.001309, 0.000115, 0.000090
100238, 611556278.676200, 0.003232, 0.000165, 0.001420, 0.000115, 0.000088
100242, 611556297.546700, 0.003356, 0.000378, 0.001459, 0.000107, 0.000089
100247, 611556321.478600, 0.003275, 0.000150, 0.001337, 0.000103, 0.000091
100250, 611556337.909000, 0.003851, 0.000243, 0.001381, 0.000117, 0.000089
100254, 611556357.110000, 0.003228, 0.000150, 0.001304, 0.000105, 0.000090
100259, 611556379.461200, 0.003297, 0.000154, 0.001511, 0.000113, 0.000090
100262, 611556398.491500, 0.003381, 0.000380, 0.001545, 0.000110, 0.000090
100266, 611556417.873700, 0.003323, 0.000150, 0.001239, 0.000104, 0.000088
100270, 611556437.238900, 0.003377, 0.000406, 0.001348, 0.000102, 0.000088
100274, 611556457.598000, 0.003344, 0.000411, 0.001394, 0.000107, 0.000086
100278, 611556477.436300, 0.003201, 0.000173, 0.001600, 0.000127, 0.000088
100282, 611556497.063800, 0.003233, 0.000214, 0.001694, 0.000119, 0.000089
100287, 611556519.520200, 0.003239, 0.000190, 0.001660, 0.000121, 0.000088
100290, 611556539.474200, 0.003198, 0.000153, 0.001246, 0.000106, 0.000090
100294, 611556559.496500, 0.003347, 0.000381, 0.001299, 0.000110, 0.000089
100299, 611556579.289900, 0.003229, 0.000157, 0.001344, 0.000113, 0.000088
100302, 611556598.747200, 0.003361, 0.000382, 0.001522, 0.000101, 0.000088
100306, 611556618.231900, 0.003423, 0.000379, 0.001514, 0.000104, 0.000090
100310, 611556637.699400, 0.003301, 0.000151, 0.001267, 0.000105, 0.000090
100314, 611556657.374300, 0.003309, 0.000157, 0.001259, 0.000110, 0.000092
100319, 611556679.387800, 0.003311, 0.000148, 0.001298, 0.000110, 0.000092
100323, 611556699.387000, 0.003279, 0.000192, 0.001501, 0.000119, 0.000092
100326, 611556718.420300, 0.003292, 0.000148, 0.001217, 0.000095, 0.000090
100330, 611556738.187400, 0.003410, 0.000365, 0.001375, 0.000099, 0.000094
100334, 611556757.377600, 0.003374, 0.000382, 0.001441, 0.000134, 0.000093
100338, 611556777.269700, 0.003222, 0.000156, 0.001387, 0.000112, 0.000092
100343, 611556799.868200, 0.003306, 0.000155, 0.001284, 0.000105, 0.000090
100346, 611556818.976500, 0.003280, 0.000150, 0.001240, 0.000106, 0.000091
100350, 611556838.933100, 0.003374, 0.000400, 0.001472, 0.000114, 0.000092
100354, 611556858.080100, 0.003265, 0.000149, 0.001280, 0.000101, 0.000092
100358, 611556876.970100, 0.003228, 0.000158, 0.001386, 0.000109, 0.000090
100362, 611556897.508800, 0.003373, 0.000415, 0.001606, 0.000134, 0.000090
100366, 611556918.089000, 0.003272, 0.000213, 0.001375, 0.000125, 0.000090
100370, 611556937.144300, 0.003411, 0.000376, 0.001470, 0.000108, 0.000088
100374, 611556959.161600, 0.003295, 0.000140, 0.001261, 0.000103, 0.000088
100378, 611556978.651500, 0.003279, 0.000208, 0.001579, 0.000132, 0.000091
100382, 611556997.461600, 0.003288, 0.000160, 0.001411, 0.000113, 0.000088
100386, 611557019.480600, 0.003417, 0.000381, 0.001482, 0.000106, 0.000087
100390, 611557039.023000, 0.003176, 0.000162, 0.001371, 0.000116, 0.000088
100396, 611557065.279100, 0.003269, 0.000156, 0.001327, 0.000110, 0.000086
100398, 611557078.840200, 0.003232, 0.000156, 0.001248, 0.000106, 0.000086
100402, 611557098.289000, 0.003367, 0.000398, 0.001418, 0.000103, 0.000085
100406, 611557117.543200, 0.003414, 0.000365, 0.001354, 0.000104, 0.000084
100410, 611557136.918200, 0.003350, 0.000148, 0.001281, 0.000112, 0.000080
100415, 611557159.101900, 0.003278, 0.000149, 0.001256, 0.000105, 0.000080
100418, 611557178.442000, 0.003233, 0.000171, 0.001424, 0.000113, 0.000080
100422, 611557197.320500, 0.003318, 0.000163, 0.001289, 0.000115, 0.000082
100427, 611557219.516900, 0.003325, 0.000154, 0.001311, 0.000109, 0.000079
100430, 611557239.149800, 0.003412, 0.000463, 0.001289, 0.000120, 0.000078
100434, 611557258.240000, 0.003341, 0.000159, 0.001152, 0.000106, 0.000079
100438, 611557277.906200, 0.003172, 0.000156, 0.001352, 0.000109, 0.000083
100442, 611557297.529100, 0.003217, 0.000157, 0.001389, 0.000109, 0.000081
100445, 611557317.364300, 0.003415, 0.000404, 0.001772, 0.000112, 0.000083
100450, 611557337.498600, 0.003231, 0.000171, 0.001527, 0.000133, 0.000083
100454, 611557356.838000, 0.003220, 0.000169, 0.001329, 0.000116, 0.000084
100459, 611557379.032500, 0.003237, 0.000140, 0.001134, 0.000095, 0.000082
100463, 611557399.045800, 0.003235, 0.000156, 0.001125, 0.000095, 0.000083
100466, 611557418.124400, 0.003235, 0.000157, 0.001318, 0.000102, 0.000083
100470, 611557437.189600, 0.003242, 0.000173, 0.001199, 0.000104, 0.000083
100475, 611557459.320400, 0.003229, 0.000170, 0.001306, 0.000115, 0.000083
100478, 611557478.603300, 0.003226, 0.000146, 0.001393, 0.000104, 0.000084
100482, 611557497.736900, 0.003278, 0.000154, 0.001186, 0.000099, 0.000085
100486, 611557517.007600, 0.003400, 0.000380, 0.001363, 0.000165, 0.000083
100491, 611557539.559400, 0.003217, 0.000180, 0.001368, 0.000116, 0.000084
100494, 611557558.547500, 0.003232, 0.000181, 0.001364, 0.000115, 0.000084
100498, 611557577.609400, 0.003230, 0.000163, 0.001237, 0.000103, 0.000086
100502, 611557596.931700, 0.003296, 0.000189, 0.001374, 0.000150, 0.000084
100507, 611557619.338100, 0.003262, 0.000161, 0.001292, 0.000112, 0.000103
100510, 611557639.389500, 0.003186, 0.000147, 0.001180, 0.000100, 0.000104
100514, 611557659.067300, 0.003355, 0.000359, 0.001276, 0.000095, 0.000104
100519, 611557679.010700, 0.003223, 0.000154, 0.001156, 0.000114, 0.000100
100522, 611557698.825700, 0.003232, 0.000148, 0.001132, 0.000104, 0.000102
100526, 611557718.265100, 0.003380, 0.000373, 0.001258, 0.000094, 0.000102
100530, 611557737.596000, 0.003318, 0.000365, 0.001478, 0.000096, 0.000102
100534, 611557757.593300, 0.003230, 0.000184, 0.001466, 0.000126, 0.000104
100538, 611557777.203000, 0.003233, 0.000150, 0.001167, 0.000092, 0.000105
100542, 611557797.281100, 0.003305, 0.000149, 0.001295, 0.000096, 0.000104
100547, 611557819.721700, 0.003241, 0.000144, 0.001179, 0.000091, 0.000106
100551, 611557839.684500, 0.003347, 0.000140, 0.001144, 0.000093, 0.000107
100554, 611557859.226900, 0.003333, 0.000138, 0.001158, 0.000092, 0.000108
100559, 611557878.946600, 0.003219, 0.000163, 0.001293, 0.000111, 0.000110
100562, 611557897.931000, 0.003365, 0.000422, 0.001403, 0.000100, 0.000110
100566, 611557917.009600, 0.003413, 0.000380, 0.001291, 0.000097, 0.000112
100571, 611557939.357100, 0.003240, 0.000162, 0.001236, 0.000100, 0.000112
100575, 611557959.076800, 0.003155, 0.000141, 0.001077, 0.000094, 0.000113
100578, 611557978.421000, 0.003245, 0.000205, 0.001338, 0.000113, 0.000110
100582, 611557997.496600, 0.003270, 0.000165, 0.001228, 0.000109, 0.000112
100587, 611558019.581800, 0.003242, 0.000224, 0.001421, 0.000123, 0.000093
100591, 611558039.859000, 0.003229, 0.000162, 0.001312, 0.000115, 0.000092
100595, 611558059.665900, 0.003182, 0.000176, 0.001321, 0.000113, 0.000094
100598, 611558078.802800, 0.003235, 0.000182, 0.001256, 0.000107, 0.000094
100602, 611558098.357500, 0.003265, 0.000160, 0.001153, 0.000097, 0.000093
100606, 611558117.311100, 0.003332, 0.000376, 0.001537, 0.000102, 0.000093
100611, 611558139.842500, 0.003319, 0.000135, 0.001155, 0.000103, 0.000094
100614, 611558159.579900, 0.003248, 0.000188, 0.001495, 0.000135, 0.000092
100618, 611558179.075000, 0.003247, 0.000215, 0.001660, 0.000123, 0.000091
100622, 611558198.317000, 0.003242, 0.000266, 0.001840, 0.000143, 0.000092
100626, 611558217.304400, 0.003368, 0.000369, 0.001310, 0.000096, 0.000090
100631, 611558239.779200, 0.003304, 0.000149, 0.001254, 0.000117, 0.000088
100635, 611558258.934000, 0.003231, 0.000160, 0.001199, 0.000116, 0.000086
100638, 611558278.008300, 0.003224, 0.000175, 0.001354, 0.000114, 0.000082
100642, 611558297.912600, 0.003255, 0.000165, 0.001243, 0.000110, 0.000084
100646, 611558317.022900, 0.003237, 0.000184, 0.001381, 0.000116, 0.000084
100650, 611558339.282400, 0.003231, 0.000159, 0.001262, 0.000102, 0.000084
100655, 611558358.952700, 0.003095, 0.000160, 0.001275, 0.000111, 0.000085
100658, 611558378.137800, 0.003226, 0.000141, 0.001183, 0.000108, 0.000084
100662, 611558397.497900, 0.003241, 0.000160, 0.001271, 0.000114, 0.000085
100666, 611558419.955000, 0.003227, 0.000149, 0.001232, 0.000101, 0.000085
100671, 611558439.144400, 0.003235, 0.000148, 0.001233, 0.000107, 0.000084
100674, 611558458.345400, 0.003366, 0.000161, 0.001211, 0.000098, 0.000082
100678, 611558477.750700, 0.003234, 0.000144, 0.001311, 0.000107, 0.000083
100682, 611558497.080800, 0.003383, 0.000386, 0.001376, 0.000102, 0.000083
100687, 611558519.400900, 0.003363, 0.000356, 0.001443, 0.000093, 0.000081
100690, 611558538.986600, 0.003311, 0.000162, 0.001295, 0.000101, 0.000084
100694, 611558558.287600, 0.003260, 0.000212, 0.001616, 0.000121, 0.000089
100698, 611558577.282100, 0.003234, 0.000175, 0.001379, 0.000112, 0.000088
100702, 611558597.364100, 0.003254, 0.000149, 0.001332, 0.000098, 0.000089
100706, 611558616.873700, 0.003401, 0.000391, 0.001272, 0.000104, 0.000088
100711, 611558639.048300, 0.003202, 0.000147, 0.001242, 0.000101, 0.000090
100714, 611558658.834900, 0.003277, 0.000157, 0.001185, 0.000099, 0.000118
100718, 611558677.991600, 0.003169, 0.000150, 0.001237, 0.000106, 0.000120
100722, 611558697.239000, 0.003421, 0.000375, 0.001264, 0.000096, 0.000119
100727, 611558719.654200, 0.003369, 0.000383, 0.001376, 0.000091, 0.000119
100731, 611558739.373600, 0.003191, 0.000155, 0.001260, 0.000109, 0.000121
100734, 611558758.305000, 0.003431, 0.000472, 0.001416, 0.000099, 0.000118
100738, 611558777.847700, 0.003233, 0.000150, 0.001206, 0.000111, 0.000120
100742, 611558797.422400, 0.003310, 0.000166, 0.001190, 0.000099, 0.000121
100746, 611558816.827700, 0.003377, 0.000537, 0.001297, 0.000116, 0.000165
100750, 611558839.305400, 0.003292, 0.000381, 0.001346, 0.000098, 0.000165
100755, 611558858.836400, 0.003086, 0.000178, 0.001195, 0.000106, 0.000166
100758, 611558878.058300, 0.003435, 0.000412, 0.001813, 0.000127, 0.000167
100762, 611558898.328900, 0.003454, 0.000375, 0.001377, 0.000102, 0.000171
100766, 611558918.029300, 0.003353, 0.000155, 0.001184, 0.000102, 0.000173
100770, 611558937.389200, 0.003375, 0.000383, 0.001322, 0.000100, 0.000170
100774, 611558958.171400, 0.003233, 0.000150, 0.001262, 0.000105, 0.000166
100778, 611558977.335100, 0.003260, 0.000158, 0.001352, 0.000109, 0.000166
100783, 611558999.727700, 0.003332, 0.000380, 0.001342, 0.000094, 0.000165
100787, 611559018.953500, 0.003228, 0.000198, 0.001273, 0.000121, 0.000167
100790, 611559039.178800, 0.003351, 0.000387, 0.001434, 0.000110, 0.000165
100794, 611559058.741900, 0.003370, 0.000376, 0.001509, 0.000099, 0.000141
100798, 611559077.760400, 0.003253, 0.000153, 0.001188, 0.000102, 0.000140
100802, 611559097.031800, 0.003290, 0.000151, 0.001311, 0.000105, 0.000138
100807, 611559119.124700, 0.003272, 0.000144, 0.001223, 0.000098, 0.000137
100811, 611559139.716700, 0.003365, 0.000364, 0.001605, 0.000114, 0.000140
100814, 611559159.191700, 0.003234, 0.000164, 0.001275, 0.000110, 0.000141
100819, 611559178.941400, 0.003196, 0.000150, 0.001317, 0.000106, 0.000141
100822, 611559198.283100, 0.003251, 0.000167, 0.001355, 0.000121, 0.000138
100826, 611559217.307500, 0.003284, 0.000161, 0.001186, 0.000100, 0.000099
100831, 611559239.453700, 0.003310, 0.000138, 0.001152, 0.000110, 0.000099
100835, 611559258.903900, 0.003231, 0.000159, 0.001212, 0.000109, 0.000097
100838, 611559278.268000, 0.003277, 0.000164, 0.001303, 0.000113, 0.000095
100842, 611559298.093900, 0.003327, 0.000158, 0.001266, 0.000110, 0.000093
100846, 611559317.273500, 0.003416, 0.000400, 0.001482, 0.000099, 0.000091
100851, 611559339.526600, 0.003191, 0.000137, 0.001182, 0.000115, 0.000092
100854, 611559358.404600, 0.003197, 0.000151, 0.001228, 0.000102, 0.000091
100858, 611559377.845300, 0.003228, 0.000188, 0.001500, 0.000121, 0.000090
100862, 611559397.109300, 0.003420, 0.000395, 0.001347, 0.000106, 0.000090
100866, 611559416.856900, 0.003408, 0.000379, 0.001398, 0.000100, 0.000089
100870, 611559436.830500, 0.003404, 0.000371, 0.001508, 0.000112, 0.000090
100874, 611559459.077500, 0.003371, 0.000396, 0.001296, 0.000103, 0.000088
100878, 611559478.246100, 0.003304, 0.000146, 0.001316, 0.000106, 0.000089
100882, 611559497.163900, 0.003408, 0.000381, 0.001279, 0.000095, 0.000089
100887, 611559519.506900, 0.003181, 0.000168, 0.001278, 0.000106, 0.000088
100890, 611559538.777200, 0.003250, 0.000174, 0.001316, 0.000111, 0.000084
100894, 611559558.089300, 0.003214, 0.000151, 0.001201, 0.000102, 0.000086
100898, 611559577.039500, 0.003243, 0.000142, 0.001155, 0.000098, 0.000086
100903, 611559599.194100, 0.003264, 0.000141, 0.001195, 0.000107, 0.000085
100907, 611559619.050100, 0.003227, 0.000141, 0.001205, 0.000097, 0.000085
100910, 611559638.654500, 0.003363, 0.000405, 0.001496, 0.000102, 0.000086
100914, 611559658.115800, 0.003235, 0.000151, 0.001128, 0.000094, 0.000089
100918, 611559677.248300, 0.003232, 0.000151, 0.001288, 0.000110, 0.000089
100922, 611559697.237800, 0.003227, 0.000161, 0.001341, 0.000120, 0.000087
100926, 611559716.943100, 0.003403, 0.000400, 0.001430, 0.000104, 0.000087
100931, 611559739.343500, 0.003223, 0.000150, 0.001328, 0.000111, 0.000085
100934, 611559758.350400, 0.003334, 0.000162, 0.001303, 0.000122, 0.000085
100938, 611559777.645200, 0.003343, 0.000165, 0.001362, 0.000109, 0.000088
100943, 611559799.811700, 0.003343, 0.000140, 0.001146, 0.000099, 0.000089
100947, 611559818.751400, 0.003237, 0.000159, 0.001183, 0.000110, 0.000091
100950, 611559838.234600, 0.003369, 0.000390, 0.001629, 0.000162, 0.000092
100954, 611559857.786500, 0.003237, 0.000150, 0.001207, 0.000100, 0.000092
100959, 611559879.828500, 0.003189, 0.000164, 0.001201, 0.000099, 0.000095
100963, 611559899.276800, 0.003237, 0.000143, 0.001304, 0.000099, 0.000125
100966, 611559918.660300, 0.003276, 0.000150, 0.001183, 0.000115, 0.000124
100970, 611559938.616500, 0.003209, 0.000147, 0.001343, 0.000112, 0.000125
100975, 611559958.762700, 0.003232, 0.000142, 0.001182, 0.000097, 0.000123
100978, 611559977.957400, 0.003238, 0.000147, 0.001269, 0.000105, 0.000123
100982, 611559997.106200, 0.003330, 0.000380, 0.001426, 0.000095, 0.000123
100986, 611560016.929900, 0.003258, 0.000165, 0.001233, 0.000101, 0.000120
100991, 611560039.277100, 0.003232, 0.000147, 0.001170, 0.000109, 0.000119
100994, 611560058.738000, 0.003335, 0.000161, 0.001221, 0.000107, 0.000118
100998, 611560077.638200, 0.003185, 0.000161, 0.001294, 0.000111, 0.000119
101002, 611560097.382300, 0.003321, 0.000149, 0.001243, 0.000106, 0.000120
101007, 611560119.635000, 0.003348, 0.000147, 0.001174, 0.000106, 0.000121
101011, 611560139.357700, 0.003232, 0.000143, 0.001172, 0.000112, 0.000122
101014, 611560158.390800, 0.003236, 0.000162, 0.001349, 0.000115, 0.000124
101018, 611560177.551400, 0.003272, 0.000160, 0.001389, 0.000105, 0.000124
101023, 611560199.488900, 0.003395, 0.000354, 0.001296, 0.000103, 0.000125
101026, 611560218.535400, 0.003289, 0.000218, 0.001412, 0.000131, 0.000123
101030, 611560238.949800, 0.003226, 0.000167, 0.001397, 0.000122, 0.000122
101034, 611560258.006000, 0.003215, 0.000171, 0.001222, 0.000099, 0.000120
101038, 611560277.539700, 0.003234, 0.000156, 0.001226, 0.000110, 0.000118
101043, 611560299.811500, 0.003239, 0.000157, 0.001164, 0.000108, 0.000088
101046, 611560318.765700, 0.003179, 0.000149, 0.001259, 0.000106, 0.000089
101050, 611560337.800700, 0.003416, 0.000407, 0.001485, 0.000101, 0.000089
101054, 611560357.224600, 0.003265, 0.000165, 0.001300, 0.000137, 0.000089
101059, 611560379.933700, 0.003233, 0.000155, 0.001332, 0.000111, 0.000088
101062, 611560399.264800, 0.003235, 0.000178, 0.001173, 0.000113, 0.000089
101066, 611560418.355300, 0.003262, 0.000166, 0.001236, 0.000102, 0.000089
101070, 611560437.071500, 0.003409, 0.000372, 0.001427, 0.000089, 0.000089
101075, 611560459.093700, 0.003245, 0.000169, 0.001274, 0.000103, 0.000088
101078, 611560478.075800, 0.003264, 0.000163, 0.001469, 0.000110, 0.000089
101082, 611560496.935400, 0.003344, 0.000510, 0.001786, 0.000120, 0.000090
101087, 611560519.955200, 0.003285, 0.000141, 0.001143, 0.000095, 0.000090
101091, 611560539.302300, 0.003185, 0.000148, 0.001230, 0.000106, 0.000091
101094, 611560559.302300, 0.003208, 0.000153, 0.001329, 0.000105, 0.000087
101098, 611560578.929100, 0.003264, 0.000161, 0.001306, 0.000101, 0.000086
101102, 611560598.412400, 0.003414, 0.000403, 0.001433, 0.000099, 0.000084
101106, 611560617.891700, 0.003384, 0.000161, 0.001206, 0.000096, 0.000083
101110, 611560637.003600, 0.003205, 0.000169, 0.001327, 0.000119, 0.000083
101115, 611560659.513700, 0.003319, 0.000157, 0.001280, 0.000101, 0.000082
101118, 611560678.728800, 0.003279, 0.000177, 0.001594, 0.000126, 0.000081
101122, 611560698.130200, 0.003405, 0.000381, 0.001470, 0.000096, 0.000083
101126, 611560717.243100, 0.003363, 0.000414, 0.001399, 0.000102, 0.000081
101131, 611560739.264400, 0.003356, 0.000353, 0.001414, 0.000094, 0.000080
101134, 611560758.274800, 0.003379, 0.000384, 0.001358, 0.000095, 0.000081
101138, 611560777.501300, 0.003260, 0.000151, 0.001248, 0.000107, 0.000083
101143, 611560799.567300, 0.003337, 0.000178, 0.001292, 0.000111, 0.000081
101146, 611560818.366000, 0.003426, 0.000400, 0.001396, 0.000103, 0.000081
101150, 611560837.495200, 0.003420, 0.000389, 0.001349, 0.000094, 0.000082
101155, 611560859.672200, 0.003269, 0.000149, 0.001234, 0.000100, 0.000082
101158, 611560878.602400, 0.003228, 0.000157, 0.001261, 0.000121, 0.000079
101162, 611560897.524700, 0.003392, 0.000408, 0.001735, 0.000107, 0.000078
101166, 611560917.261400, 0.003253, 0.000152, 0.001286, 0.000108, 0.000079
101171, 611560939.879500, 0.003234, 0.000150, 0.001226, 0.000106, 0.000077
101175, 611560958.989100, 0.003063, 0.000175, 0.001279, 0.000110, 0.000078
101178, 611560978.035800, 0.003264, 0.000164, 0.001242, 0.000105, 0.000079
101182, 611560997.223300, 0.003343, 0.000141, 0.001307, 0.000104, 0.000080
101187, 611561019.416900, 0.003243, 0.000144, 0.001205, 0.000098, 0.000080
101190, 611561038.281700, 0.003206, 0.000163, 0.001197, 0.000105, 0.000081
101194, 611561057.291900, 0.003535, 0.000477, 0.001255, 0.000108, 0.000085
101199, 611561079.773300, 0.003370, 0.000390, 0.001332, 0.000138, 0.000085
101203, 611561099.048300, 0.003214, 0.000184, 0.001297, 0.000113, 0.000086
101206, 611561118.072700, 0.003319, 0.000396, 0.001503, 0.000111, 0.000085
101210, 611561137.912800, 0.003350, 0.000147, 0.001154, 0.000100, 0.000087
101214, 611561156.886700, 0.003241, 0.000159, 0.001301, 0.000096, 0.000085
101219, 611561179.984600, 0.003261, 0.000163, 0.001344, 0.000118, 0.000084
101223, 611561199.184900, 0.003175, 0.000161, 0.001371, 0.000112, 0.000085
101226, 611561218.315700, 0.003355, 0.000158, 0.001181, 0.000106, 0.000084
101230, 611561237.425800, 0.003418, 0.000406, 0.001280, 0.000099, 0.000085
101234, 611561257.083200, 0.003413, 0.000424, 0.001434, 0.000095, 0.000088
101239, 611561279.514400, 0.003208, 0.000156, 0.001178, 0.000101, 0.000088
101242, 611561298.932700, 0.003257, 0.000156, 0.001203, 0.000099, 0.000087
101246, 611561318.402000, 0.003249, 0.000155, 0.001286, 0.000106, 0.000088
101250, 611561337.646100, 0.003321, 0.000370, 0.001373, 0.000097, 0.000089
101255, 611561359.889700, 0.003397, 0.000374, 0.001557, 0.000116, 0.000091
101258, 611561378.894400, 0.003228, 0.000155, 0.001271, 0.000107, 0.000093
101262, 611561398.055900, 0.003417, 0.000381, 0.001508, 0.000099, 0.000095
101266, 611561417.229200, 0.003175, 0.000148, 0.001207, 0.000104, 0.000096
101271, 611561442.329900, 0.003309, 0.000377, 0.001512, 0.000101, 0.000094
101275, 611561459.315700, 0.003235, 0.000150, 0.001193, 0.000108, 0.000092
101279, 611561479.818700, 0.003414, 0.000382, 0.001376, 0.000102, 0.000092
101282, 611561497.916200, 0.003425, 0.000378, 0.001692, 0.000112, 0.000092
101286, 611561516.863100, 0.003313, 0.000202, 0.001411, 0.000114, 0.000096
101290, 611561537.747500, 0.003392, 0.000395, 0.001267, 0.000102, 0.000095
101294, 611561558.030600, 0.003177, 0.000154, 0.001151, 0.000098, 0.000095
101299, 611561579.239700, 0.003188, 0.000149, 0.001247, 0.000107, 0.000095
101303, 611561599.958800, 0.003352, 0.000206, 0.001382, 0.000155, 0.000095
101306, 611561617.088700, 0.003307, 0.000162, 0.001253, 0.000106, 0.000095
101310, 611561636.978500, 0.003352, 0.000402, 0.001451, 0.000144, 0.000096
101314, 611561658.132800, 0.003293, 0.000151, 0.001146, 0.000099, 0.000093
101318, 611561677.629700, 0.003212, 0.000151, 0.001248, 0.000115, 0.000093
101322, 611561698.818900, 0.003382, 0.000155, 0.001235, 0.000103, 0.000093
101327, 611561719.150000, 0.003325, 0.000144, 0.001152, 0.000097, 0.000091
101331, 611561739.967200, 0.003233, 0.000154, 0.001293, 0.000112, 0.000091
101335, 611561760.376200, 0.003294, 0.000148, 0.001264, 0.000104, 0.000088
101338, 611561777.475400, 0.003312, 0.000159, 0.001272, 0.000113, 0.000085
101343, 611561799.762200, 0.003352, 0.000142, 0.001206, 0.000101, 0.000085
101346, 611561817.032200, 0.003415, 0.000404, 0.001395, 0.000104, 0.000085
101350, 611561838.272000, 0.003288, 0.000140, 0.001355, 0.000105, 0.000087
101354, 611561858.469600, 0.003353, 0.000145, 0.001162, 0.000103, 0.000085
101358, 611561877.720200, 0.003182, 0.000147, 0.001209, 0.000099, 0.000085
101362, 611561896.916100, 0.003347, 0.000143, 0.001157, 0.000103, 0.000083
101367, 611561919.530200, 0.003270, 0.000152, 0.001365, 0.000107, 0.000080
101370, 611561938.670100, 0.003410, 0.000386, 0.001454, 0.000101, 0.000080
101374, 611561958.134800, 0.003329, 0.000143, 0.001207, 0.000098, 0.000080
101378, 611561977.499800, 0.003247, 0.000150, 0.001180, 0.000105, 0.000081
101382, 611561997.221000, 0.003208, 0.000149, 0.001158, 0.000110, 0.000079
101386, 611562017.989700, 0.003339, 0.000158, 0.001300, 0.000106, 0.000080
101390, 611562038.166200, 0.003384, 0.000392, 0.001406, 0.000102, 0.000078
101394, 611562058.384000, 0.003373, 0.000397, 0.001362, 0.000102, 0.000078
101398, 611562079.213500, 0.003460, 0.000154, 0.001248, 0.000111, 0.000078
101403, 611562099.096500, 0.003338, 0.000147, 0.001185, 0.000100, 0.000077
101406, 611562118.889100, 0.003322, 0.000397, 0.001249, 0.000101, 0.000079
101410, 611562138.004000, 0.003350, 0.000377, 0.001337, 0.000097, 0.000079
101414, 611562157.089200, 0.003192, 0.000156, 0.001189, 0.000110, 0.000080
101419, 611562179.246900, 0.003285, 0.000151, 0.001191, 0.000098, 0.000080
101423, 611562199.678700, 0.003301, 0.000158, 0.001206, 0.000105, 0.000079
101427, 611562220.191300, 0.003230, 0.000158, 0.001287, 0.000107, 0.000077
101431, 611562240.231200, 0.003318, 0.000363, 0.001588, 0.000102, 0.000076
101435, 611562259.472900, 0.003312, 0.000167, 0.001215, 0.000103, 0.000075
101438, 611562278.737700, 0.003252, 0.000205, 0.001485, 0.000116, 0.000077
101442, 611562298.109200, 0.003258, 0.000139, 0.001154, 0.000096, 0.000078
101446, 611562317.568500, 0.003200, 0.000154, 0.001281, 0.000107, 0.000079
101450, 611562337.065300, 0.003302, 0.000150, 0.001188, 0.000098, 0.000079
101455, 611562359.411800, 0.003131, 0.000373, 0.001379, 0.000092, 0.000078
101458, 611562378.492300, 0.003260, 0.000146, 0.001199, 0.000101, 0.000080
101462, 611562397.762600, 0.003293, 0.000151, 0.001262, 0.000113, 0.000080
101466, 611562416.846200, 0.003278, 0.000154, 0.001157, 0.000101, 0.000079
101471, 611562439.677300, 0.003365, 0.000368, 0.001403, 0.000102, 0.000079
101474, 611562457.499700, 0.003451, 0.000387, 0.001466, 0.000095, 0.000080
101479, 611562479.972400, 0.003307, 0.000134, 0.001281, 0.000106, 0.000080
101483, 611562499.504900, 0.003410, 0.000150, 0.001137, 0.000097, 0.000082
101486, 611562518.621600, 0.003283, 0.000162, 0.001245, 0.000105, 0.000081
101490, 611562537.978800, 0.003471, 0.000372, 0.001282, 0.000098, 0.000081
101508, 611562628.371200, 0.003308, 0.000406, 0.001498, 0.000105, 0.000081
101509, 611562629.157000, 0.003364, 0.000365, 0.001333, 0.000102, 0.000081
101510, 611562634.380900, 0.003396, 0.000363, 0.001515, 0.000109, 0.000079
101511, 611562639.353000, 0.003370, 0.000370, 0.001510, 0.000109, 0.000079
